File: 000397_K06_5_1350_Air-static.txt
#FILE:                 ;000397_K06_5_1350_Air-static.sle
#FORMAT:               ;NETZSCH5
#IDENTITY:             ;000397
#DECIMAL:              ;POINT
#SEPARATOR:            ;SEMICOLON
#MTYPE:                ;DIL
#MSUBTYPE:             ;
#INSTRUMENT:           ;NETZSCH DIL 402 C
#PROJECT:              ;
#DATE/TIME:            ;24.06.2021 13:17:17
#CORR. FILE:           ;
#LABORATORY:           ;НМ
#OPERATOR:             ;Орлов Н.
#REMARK:               ;
#SAMPLE:               ;corr_5
#SAMPLE LENGTH /mm:    ;2.400
#MATERIAL:             ;стандартный образец
#MEASMODE:             ;Standard Expansion
#PURGE GAS 1:          ;
#FLOW RATE 1 /(ml/min):;0
#CORR. CODE:           ;000
#RANGE:                ;40.0/5.0(K/мин)/1350.0
#SEGMENT:              ;S1/1

##Temp./°C;Time/min;dL/Lo
  40.34600;0.0000e+000; 0.0000e+000
  40.92700;    0.88000;-1.2500e-005
  42.55400;    1.76000;-5.7292e-005
  44.72000;    2.64000;-1.3073e-004
  47.63400;    3.52000;-2.3698e-004
  51.19200;    4.40000;-3.6927e-004
  55.31700;    5.28000;-5.1823e-004
  59.94600;    6.16000;-6.8333e-004
  64.98700;    7.04000;-8.4844e-004
  70.32700;    7.92000;-1.0135e-003
  75.89300;    8.80000;-1.1766e-003
  81.58800;    9.68000;-1.3281e-003
  87.32500;   10.56000;-1.4620e-003
  93.02900;   11.44000;-1.5703e-003
  98.63700;   12.32000;-1.6526e-003
 104.112;   13.20000;-1.7083e-003
 109.455;   14.08000;-1.7328e-003
 114.673;   14.96000;-1.7318e-003
 119.747;   15.84000;-1.7198e-003
 124.682;   16.72000;-1.6911e-003
 129.48;   17.60000;-1.6349e-003
 134.16;   18.48000;-1.5667e-003
 138.715;   19.36000;-1.4922e-003
 143.177;   20.24000;-1.4120e-003
 147.57;   21.12000;-1.3219e-003
 151.922;   22.00000;-1.2245e-003
 156.203;   22.88000;-1.1271e-003
 160.474;   23.76000;-1.0328e-003
 164.76;   24.64000;-9.4219e-004
 169.022;   25.52000;-8.5938e-004
 173.298;   26.40000;-7.7240e-004
 177.602;   27.28000;-6.9219e-004
 181.91;   28.16000;-6.1354e-004
 186.236;   29.04000;-5.3958e-004
 190.589;   29.92000;-4.6146e-004
 194.942;   30.80000;-3.8750e-004
 199.314;   31.68000;-3.1771e-004
 203.682;   32.56000;-2.4271e-004
 208.079;   33.44000;-1.7396e-004
 212.482;   34.32000;-1.0260e-004
 216.91;   35.20000;-3.1250e-005
 221.322;   36.08000; 3.8021e-005
 225.742;   36.96000; 1.0365e-004
 230.182;   37.84000; 1.5885e-004
 234.614;   38.72000; 2.1979e-004
 239.056;   39.60000; 2.8646e-004
 243.532;   40.48000; 3.4896e-004
 248.011;   41.36000; 4.2240e-004
 252.507;   42.24000; 4.9479e-004
 257.042;   43.12000; 5.7135e-004
 261.574;   44.00000; 6.5156e-004
 266.132;   44.88000; 7.2031e-004
 270.65;   45.76000; 7.8854e-004
 275.123;   46.64000; 8.6719e-004
 279.487;   47.52000; 9.4635e-004
 283.751;   48.40000; 1.0172e-003
 288.293;   49.28000; 1.0844e-003
 292.228;   50.16000; 1.1635e-003
 295.863;   51.04000; 1.2302e-003
 299.689;   51.92000; 1.2781e-003
 303.778;   52.80000; 1.3156e-003
 308.175;   53.68000; 1.3333e-003
 312.759;   54.56000; 1.3714e-003
 317.411;   55.44000; 1.4203e-003
 322.055;   56.32000; 1.4844e-003
 326.669;   57.20000; 1.5625e-003
 331.238;   58.08000; 1.6521e-003
 335.769;   58.96000; 1.7469e-003
 340.258;   59.84000; 1.8526e-003
 344.717;   60.72000; 1.9542e-003
 349.151;   61.60000; 2.0505e-003
 353.568;   62.48000; 2.1531e-003
 357.967;   63.36000; 2.2479e-003
 362.366;   64.24000; 2.3490e-003
 366.761;   65.12000; 2.4479e-003
 371.151;   66.00000; 2.5406e-003
 375.541;   66.88000; 2.6271e-003
 379.936;   67.76000; 2.7104e-003
 384.329;   68.64000; 2.7917e-003
 388.728;   69.52000; 2.8677e-003
 393.111;   70.40000; 2.9411e-003
 397.507;   71.28000; 3.0057e-003
 401.905;   72.16000; 3.0672e-003
 406.311;   73.04000; 3.1214e-003
 410.709;   73.92000; 3.1740e-003
 415.09;   74.80000; 3.2276e-003
 419.501;   75.68000; 3.2771e-003
 423.881;   76.56000; 3.3250e-003
 428.287;   77.44000; 3.3729e-003
 432.685;   78.32000; 3.4286e-003
 437.086;   79.20000; 3.4849e-003
 441.476;   80.08000; 3.5479e-003
 445.874;   80.96000; 3.6208e-003
 450.272;   81.84000; 3.6927e-003
 454.669;   82.72000; 3.7745e-003
 459.068;   83.60000; 3.8573e-003
 463.462;   84.48000; 3.9438e-003
 467.861;   85.36000; 4.0365e-003
 472.258;   86.24000; 4.1344e-003
 476.659;   87.12000; 4.2255e-003
 481.062;   88.00000; 4.3177e-003
 485.457;   88.88000; 4.4146e-003
 489.849;   89.76000; 4.5109e-003
 494.255;   90.64000; 4.6083e-003
 498.656;   91.52000; 4.7005e-003
 503.047;   92.40000; 4.7786e-003
 507.447;   93.28000; 4.8661e-003
 511.852;   94.16000; 4.9500e-003
 516.254;   95.04000; 5.0328e-003
 520.653;   95.92000; 5.1245e-003
 525.06;   96.80000; 5.2172e-003
 529.459;   97.68000; 5.3068e-003
 533.86;   98.56000; 5.3979e-003
 538.245;   99.44000; 5.4859e-003
 542.651;  100.32; 5.5734e-003
 547.048;  101.2; 5.6589e-003
 551.451;  102.08; 5.7526e-003
 555.847;  102.96; 5.8333e-003
 560.258;  103.84; 5.9172e-003
 564.64;  104.72; 5.9995e-003
 569.047;  105.6; 6.0797e-003
 573.435;  106.48; 6.1521e-003
 577.834;  107.36; 6.2401e-003
 582.241;  108.24; 6.3182e-003
 586.643;  109.12; 6.3990e-003
 591.032;  110; 6.4734e-003
 595.432;  110.88; 6.5432e-003
 599.827;  111.76; 6.6182e-003
 604.221;  112.64; 6.6896e-003
 608.619;  113.52; 6.7563e-003
 613.01;  114.4; 6.8245e-003
 617.394;  115.28; 6.8969e-003
 621.796;  116.16; 6.9557e-003
 626.184;  117.04; 7.0120e-003
 630.583;  117.92; 7.0646e-003
 634.981;  118.8; 7.1240e-003
 639.373;  119.68; 7.1714e-003
 643.753;  120.56; 7.2234e-003
 648.152;  121.44; 7.2651e-003
 652.543;  122.32; 7.3052e-003
 656.936;  123.2; 7.3495e-003
 661.342;  124.08; 7.4182e-003
 665.744;  124.96; 7.4781e-003
 670.137;  125.84; 7.5349e-003
 674.527;  126.72; 7.5818e-003
 678.922;  127.6; 7.6365e-003
 683.322;  128.48; 7.6781e-003
 687.726;  129.36; 7.7292e-003
 692.122;  130.24; 7.7693e-003
 696.517;  131.12; 7.8109e-003
 700.915;  132; 7.8536e-003
 705.302;  132.88; 7.8880e-003
 709.696;  133.76; 7.9302e-003
 714.097;  134.64; 7.9620e-003
 718.482;  135.52; 7.9870e-003
 722.874;  136.4; 8.0141e-003
 727.261;  137.28; 8.0349e-003
 731.655;  138.16; 8.0443e-003
 736.051;  139.04; 8.0542e-003
 740.452;  139.92; 8.0568e-003
 744.838;  140.8; 8.0458e-003
 749.236;  141.68; 8.0484e-003
 753.636;  142.56; 8.0292e-003
 758.038;  143.44; 8.0005e-003
 762.432;  144.32; 7.9583e-003
 766.822;  145.2; 7.9135e-003
 771.223;  146.08; 7.8432e-003
 775.61;  146.96; 7.7599e-003
 780.003;  147.84; 7.6708e-003
 784.397;  148.72; 7.5589e-003
 788.79;  149.6; 7.4385e-003
 793.188;  150.48; 7.3031e-003
 797.578;  151.36; 7.1417e-003
 801.985;  152.24; 6.9630e-003
 806.378;  153.12; 6.7479e-003
 810.777;  154; 6.5271e-003
 815.176;  154.88; 6.2849e-003
 819.566;  155.76; 6.0219e-003
 823.971;  156.64; 5.7286e-003
 828.378;  157.52; 5.4141e-003
 832.761;  158.4; 5.0865e-003
 837.151;  159.28; 4.7458e-003
 841.556;  160.16; 4.3781e-003
 845.95;  161.04; 3.9922e-003
 850.344;  161.92; 3.5771e-003
 854.733;  162.8; 3.1458e-003
 859.133;  163.68; 2.6896e-003
 863.519;  164.56; 2.2089e-003
 867.909;  165.44; 1.7578e-003
 872.327;  166.32; 1.2641e-003
 876.719;  167.2; 7.4427e-004
 881.1;  168.08; 1.9063e-004
 885.491;  168.96;-3.7500e-004
 889.888;  169.84;-9.6979e-004
 894.289;  170.72;-1.5865e-003
 898.684;  171.6;-2.2307e-003
 903.089;  172.48;-2.9005e-003
 907.484;  173.36;-3.5932e-003
 911.874;  174.24;-4.3115e-003
 916.289;  175.12;-5.0542e-003
 920.672;  176;-5.8224e-003
 925.083;  176.88;-6.6156e-003
 929.458;  177.76;-7.4349e-003
 933.863;  178.64;-8.2667e-003
 938.246;  179.52;-9.1141e-003
 942.653;  180.4;-9.9885e-003
 947.042;  181.28;-1.0879e-002
 951.44;  182.16;-1.1790e-002
 955.83;  183.04;-1.2720e-002
 960.212;  183.92;-1.3661e-002
 964.621;  184.8;-1.4631e-002
 969.008;  185.68;-1.5628e-002
 973.405;  186.56;-1.6667e-002
 977.816;  187.44;-1.7755e-002
 982.207;  188.32;-1.8879e-002
 986.607;  189.2;-2.0042e-002
 991.016;  190.08;-2.1234e-002
 995.401;  190.96;-2.2460e-002
 999.801;  191.84;-2.3702e-002
1004.21;  192.72;-2.4978e-002
1008.6;  193.6;-2.6287e-002
1013.01;  194.48;-2.7633e-002
1017.4;  195.36;-2.9019e-002
1021.79;  196.24;-3.0433e-002
1026.2;  197.12;-3.1883e-002
1030.59;  198;-3.3336e-002
1034.99;  198.88;-3.4834e-002
1039.4;  199.76;-3.6351e-002
1043.78;  200.64;-3.7850e-002
1048.17;  201.52;-3.9406e-002
1052.58;  202.4;-4.0949e-002
1056.98;  203.28;-4.2499e-002
1061.36;  204.16;-4.4063e-002
1065.76;  205.04;-4.5634e-002
1070.16;  205.92;-4.7188e-002
1074.55;  206.8;-4.8759e-002
1078.93;  207.68;-5.0315e-002
1083.35;  208.56;-5.1898e-002
1087.74;  209.44;-5.3505e-002
1092.15;  210.32;-5.5115e-002
1096.55;  211.2;-5.6738e-002
1100.93;  212.08;-5.8360e-002
1105.33;  212.96;-5.9962e-002
1109.74;  213.84;-6.1565e-002
1114.13;  214.72;-6.3168e-002
1118.54;  215.6;-6.4791e-002
1122.93;  216.48;-6.6379e-002
1127.32;  217.36;-6.7920e-002
1131.72;  218.24;-6.9516e-002
1136.11;  219.12;-7.1058e-002
1140.52;  220;-7.2572e-002
1144.92;  220.88;-7.4028e-002
1149.31;  221.76;-7.5440e-002
1153.71;  222.64;-7.6829e-002
1158.11;  223.52;-7.8149e-002
1162.51;  224.4;-7.9432e-002
1166.9;  225.28;-8.0607e-002
1171.28;  226.16;-8.1770e-002
1175.69;  227.04;-8.2852e-002
1180.11;  227.92;-8.3905e-002
1184.51;  228.8;-8.4864e-002
1188.91;  229.68;-8.5751e-002
1193.31;  230.56;-8.6623e-002
1197.71;  231.44;-8.7451e-002
1202.1;  232.32;-8.8217e-002
1206.49;  233.2;-8.8933e-002
1210.9;  234.08;-8.9621e-002
1215.29;  234.96;-9.0290e-002
1219.68;  235.84;-9.0896e-002
1224.1;  236.72;-9.1402e-002
1228.49;  237.6;-9.1975e-002
1232.88;  238.48;-9.2444e-002
1237.29;  239.36;-9.2885e-002
1241.68;  240.24;-9.3317e-002
1246.06;  241.12;-9.3687e-002
1250.48;  242;-9.4002e-002
1254.86;  242.88;-9.4283e-002
1259.29;  243.76;-9.4496e-002
1263.7;  244.64;-9.4677e-002
1268.1;  245.52;-9.4820e-002
1272.49;  246.4;-9.4828e-002
1276.89;  247.28;-9.4784e-002
1281.28;  248.16;-9.4683e-002
1285.68;  249.04;-9.4669e-002
1290.1;  249.92;-9.4760e-002
1294.48;  250.8;-9.4755e-002
1298.91;  251.68;-9.4862e-002
1303.31;  252.56;-9.5002e-002
1307.69;  253.44;-9.5119e-002
1312.11;  254.32;-9.5059e-002
1316.5;  255.2;-9.5080e-002
1320.89;  256.08;-9.5196e-002
1325.3;  256.96;-9.4990e-002
1329.69;  257.84;-9.4953e-002
1334.11;  258.72;-9.4891e-002
1338.49;  259.6;-9.5428e-002
1342.88;  260.48;-9.5720e-002
1347.3;  261.36;-9.6142e-002
1350.45;  261.99;-9.6625e-002