File: 000398_K06_2_1350_Air-static.txt
#FILE:                 ;000398_K06_2_1350_Air-static.sle
#FORMAT:               ;NETZSCH5
#IDENTITY:             ;000398
#DECIMAL:              ;POINT
#SEPARATOR:            ;SEMICOLON
#MTYPE:                ;DIL
#MSUBTYPE:             ;
#INSTRUMENT:           ;NETZSCH DIL 402 C
#PROJECT:              ;
#DATE/TIME:            ;24.06.2021 19:46:38
#CORR. FILE:           ;
#LABORATORY:           ;НМ
#OPERATOR:             ;Орлов Н.
#REMARK:               ;
#SAMPLE:               ;K06_2
#SAMPLE LENGTH /mm:    ;2.780
#MATERIAL:             ;стандартный образец
#MEASMODE:             ;Standard Expansion
#PURGE GAS 1:          ;
#FLOW RATE 1 /(ml/min):;0
#CORR. CODE:           ;000
#RANGE:                ;40.0/2.0(K/мин)/1350.0
#SEGMENT:              ;S1/1

##Temp./°C;Time/min;dL/Lo
  41.17500;0.0000e+000; 0.0000e+000
  42.12700;    2.19583;-9.8921e-006
  44.64100;    4.39167;-9.0378e-005
  48.53000;    6.58750;-2.1897e-004
  53.42100;    8.78333;-3.6016e-004
  58.88000;   10.97917;-4.8246e-004
  64.47700;   13.17500;-5.6205e-004
  69.95300;   15.37083;-5.9577e-004
  75.15700;   17.56667;-5.8903e-004
  80.06000;   19.76250;-5.4541e-004
  84.66500;   21.95833;-4.7347e-004
  89.06200;   24.15417;-3.9344e-004
  93.33600;   26.35000;-3.0980e-004
  97.55500;   28.54583;-2.2887e-004
 101.792;   30.74167;-1.5333e-004
 106.085;   32.93750;-8.4982e-005
 110.419;   35.13334;-1.7086e-005
 114.814;   37.32917; 4.9460e-005
 119.238;   39.52500; 1.1601e-004
 123.696;   41.72083; 1.8345e-004
 128.137;   43.91667; 2.5180e-004
 132.581;   46.11250; 3.2599e-004
 136.998;   48.30833; 4.0288e-004
 141.413;   50.50417; 4.7482e-004
 145.813;   52.70000; 5.4946e-004
 150.207;   54.89583; 6.1781e-004
 154.597;   57.09167; 6.7986e-004
 159.008;   59.28750; 7.3966e-004
 163.405;   61.48333; 7.9451e-004
 167.817;   63.67916; 8.5342e-004
 172.236;   65.87500; 9.1592e-004
 176.646;   68.07083; 9.8336e-004
 181.045;   70.26667; 1.0549e-003
 185.44;   72.46250; 1.1290e-003
 189.847;   74.65833; 1.2091e-003
 194.244;   76.85416; 1.2833e-003
 198.634;   79.05000; 1.3624e-003
 203.031;   81.24583; 1.4406e-003
 207.437;   83.44167; 1.5189e-003
 211.837;   85.63750; 1.5881e-003
 216.251;   87.83334; 1.6655e-003
 220.658;   90.02917; 1.7455e-003
 225.068;   92.22500; 1.8116e-003
 229.475;   94.42083; 1.8799e-003
 233.882;   96.61667; 1.9442e-003
 238.282;   98.81250; 2.0117e-003
 242.677;  101.008; 2.0841e-003
 247.041;  103.204; 2.1592e-003
 251.381;  105.4; 2.2325e-003
 255.696;  107.596; 2.3107e-003
 260.044;  109.792; 2.3813e-003
 264.428;  111.987; 2.4649e-003
 268.84;  114.183; 2.5432e-003
 273.272;  116.379; 2.6268e-003
 277.723;  118.575; 2.7149e-003
 282.165;  120.771; 2.8058e-003
 286.579;  122.967; 2.8979e-003
 290.966;  125.162; 2.9861e-003
 295.354;  127.358; 3.0782e-003
 299.744;  129.554; 3.1637e-003
 304.141;  131.75; 3.2536e-003
 308.53;  133.946; 3.3476e-003
 312.925;  136.142; 3.4366e-003
 317.321;  138.337; 3.5220e-003
 321.709;  140.533; 3.6187e-003
 326.114;  142.729; 3.7091e-003
 330.497;  144.925; 3.7995e-003
 334.885;  147.121; 3.8876e-003
 339.285;  149.317; 3.9775e-003
 343.682;  151.512; 4.0679e-003
 348.073;  153.708; 4.1547e-003
 352.457;  155.904; 4.2424e-003
 356.852;  158.1; 4.3255e-003
 361.251;  160.296; 4.4137e-003
 365.641;  162.492; 4.4982e-003
 370.033;  164.688; 4.5841e-003
 374.428;  166.883; 4.6655e-003
 378.823;  169.079; 4.7563e-003
 383.215;  171.275; 4.8390e-003
 387.615;  173.471; 4.9276e-003
 392.014;  175.667; 5.0121e-003
 396.402;  177.863; 5.1084e-003
 400.793;  180.058; 5.1983e-003
 405.193;  182.254; 5.2891e-003
 409.584;  184.45; 5.3808e-003
 413.971;  186.646; 5.4712e-003
 418.371;  188.842; 5.5634e-003
 422.751;  191.038; 5.6470e-003
 427.148;  193.233; 5.7451e-003
 431.532;  195.429; 5.8350e-003
 435.931;  197.625; 5.9308e-003
 440.32;  199.821; 6.0198e-003
 444.717;  202.017; 6.1165e-003
 449.11;  204.212; 6.2086e-003
 453.5;  206.408; 6.3026e-003
 457.894;  208.604; 6.3970e-003
 462.288;  210.8; 6.4870e-003
 466.671;  212.996; 6.5823e-003
 471.071;  215.192; 6.6808e-003
 475.46;  217.387; 6.7689e-003
 479.855;  219.583; 6.8705e-003
 484.234;  221.779; 6.9649e-003
 488.625;  223.975; 7.0580e-003
 493.023;  226.171; 7.1511e-003
 497.409;  228.367; 7.2496e-003
 501.813;  230.562; 7.3449e-003
 506.201;  232.758; 7.4348e-003
 510.596;  234.954; 7.5252e-003
 514.985;  237.15; 7.6129e-003
 519.385;  239.346; 7.7140e-003
 523.765;  241.542; 7.7954e-003
 528.159;  243.738; 7.8966e-003
 532.548;  245.933; 7.9879e-003
 536.944;  248.129; 8.0773e-003
 541.339;  250.325; 8.1686e-003
 545.725;  252.521; 8.2505e-003
 550.116;  254.717; 8.3458e-003
 554.508;  256.913; 8.4281e-003
 558.905;  259.108; 8.5144e-003
 563.301;  261.304; 8.5953e-003
 567.692;  263.5; 8.6799e-003
 572.066;  265.696; 8.7617e-003
 576.47;  267.892; 8.8395e-003
 580.858;  270.087; 8.9119e-003
 585.248;  272.283; 8.9942e-003
 589.641;  274.479; 9.0612e-003
 594.021;  276.675; 9.1349e-003
 598.43;  278.871; 9.2028e-003
 602.81;  281.067; 9.2770e-003
 607.205;  283.263; 9.3390e-003
 611.59;  285.458; 9.4011e-003
 615.978;  287.654; 9.4573e-003
 620.37;  289.85; 9.5153e-003
 624.752;  292.046; 9.5684e-003
 629.144;  294.242; 9.6196e-003
 633.532;  296.438; 9.6655e-003
 637.925;  298.633; 9.7109e-003
 642.319;  300.829; 9.7500e-003
 646.704;  303.025; 9.7833e-003
 651.105;  305.221; 9.8228e-003
 655.5;  307.417; 9.8737e-003
 659.881;  309.612; 9.9078e-003
 664.271;  311.808; 9.9492e-003
 668.66;  314.004; 9.9816e-003
 673.045;  316.2; 1.0009e-002
 677.435;  318.396; 1.0028e-002
 681.828;  320.592; 1.0059e-002
 686.216;  322.788; 1.0074e-002
 690.604;  324.983; 1.0075e-002
 694.999;  327.179; 1.0085e-002
 699.389;  329.375; 1.0085e-002
 703.782;  331.571; 1.0075e-002
 708.168;  333.767; 1.0062e-002
 712.558;  335.962; 1.0045e-002
 716.955;  338.158; 1.0019e-002
 721.34;  340.354; 9.9816e-003
 725.727;  342.55; 9.9371e-003
 730.113;  344.746; 9.8826e-003
 734.513;  346.942; 9.8107e-003
 738.906;  349.138; 9.7329e-003
 743.285;  351.333; 9.6529e-003
 747.678;  353.529; 9.5562e-003
 752.071;  355.725; 9.4460e-003
 756.457;  357.921; 9.3166e-003
 760.846;  360.117; 9.1902e-003
 765.233;  362.312; 9.0499e-003
 769.628;  364.508; 8.8943e-003
 774.007;  366.704; 8.7271e-003
 778.408;  368.9; 8.5531e-003
 782.788;  371.096; 8.3593e-003
 787.189;  373.292; 8.1560e-003
 791.564;  375.487; 7.9348e-003
 795.963;  377.683; 7.6947e-003
 800.357;  379.879; 7.4451e-003
 804.734;  382.075; 7.1704e-003
 809.122;  384.271; 6.8791e-003
 813.515;  386.467; 6.5697e-003
 817.909;  388.663; 6.2410e-003
 822.299;  390.858; 5.8903e-003
 826.697;  393.054; 5.5139e-003
 831.089;  395.25; 5.1124e-003
 835.483;  397.446; 4.6889e-003
 839.87;  399.642; 4.2509e-003
 844.264;  401.837; 3.7779e-003
 848.655;  404.033; 3.2783e-003
 853.045;  406.229; 2.7527e-003
 857.44;  408.425; 2.1929e-003
 861.829;  410.621; 1.6084e-003
 866.213;  412.817; 9.9011e-004
 870.6;  415.013; 3.4173e-004
 874.988;  417.208;-3.3993e-004
 879.372;  419.404;-1.0490e-003
 883.762;  421.6;-1.7954e-003
 888.155;  423.796;-2.5715e-003
 892.545;  425.992;-3.3831e-003
 896.95;  428.188;-4.2230e-003
 901.331;  430.383;-5.0940e-003
 905.729;  432.579;-5.9951e-003
 910.121;  434.775;-6.9218e-003
 914.504;  436.971;-7.8741e-003
 918.891;  439.167;-8.8543e-003
 923.285;  441.362;-9.8579e-003
 927.672;  443.558;-1.0881e-002
 932.066;  445.754;-1.1915e-002
 936.459;  447.95;-1.2977e-002
 940.848;  450.146;-1.4048e-002
 945.239;  452.342;-1.5134e-002
 949.614;  454.538;-1.6232e-002
 954.004;  456.733;-1.7345e-002
 958.397;  458.929;-1.8483e-002
 962.787;  461.125;-1.9629e-002
 967.184;  463.321;-2.0793e-002
 971.57;  465.517;-2.1975e-002
 975.963;  467.712;-2.3179e-002
 980.35;  469.908;-2.4415e-002
 984.75;  472.104;-2.5646e-002
 989.139;  474.3;-2.6929e-002
 993.536;  476.496;-2.8226e-002
 997.934;  478.692;-2.9532e-002
1002.32;  480.888;-3.0877e-002
1006.71;  483.083;-3.2238e-002
1011.09;  485.279;-3.3616e-002
1015.5;  487.475;-3.5010e-002
1019.89;  489.671;-3.6419e-002
1024.27;  491.867;-3.7839e-002
1028.66;  494.062;-3.9262e-002
1033.05;  496.258;-4.0705e-002
1037.44;  498.454;-4.2160e-002
1041.84;  500.65;-4.3617e-002
1046.21;  502.846;-4.5084e-002
1050.6;  505.042;-4.6554e-002
1055.01;  507.237;-4.8003e-002
1059.4;  509.433;-4.9487e-002
1063.79;  511.629;-5.0918e-002
1068.17;  513.825;-5.2423e-002
1072.56;  516.021;-5.3863e-002
1076.96;  518.217;-5.5310e-002
1081.35;  520.412;-5.6759e-002
1085.74;  522.608;-5.8148e-002
1090.12;  524.804;-5.9544e-002
1094.51;  527;-6.0937e-002
1098.93;  529.196;-6.2253e-002
1103.3;  531.392;-6.3601e-002
1107.68;  533.588;-6.4872e-002
1112.07;  535.783;-6.6099e-002
1116.48;  537.979;-6.7338e-002
1120.87;  540.175;-6.8514e-002
1125.26;  542.371;-6.9682e-002
1129.65;  544.567;-7.0795e-002
1134.04;  546.763;-7.1876e-002
1138.43;  548.958;-7.2870e-002
1142.82;  551.154;-7.3880e-002
1147.22;  553.35;-7.4824e-002
1151.6;  555.546;-7.5685e-002
1155.98;  557.742;-7.6519e-002
1160.4;  559.938;-7.7281e-002
1164.78;  562.133;-7.7982e-002
1169.17;  564.329;-7.8664e-002
1173.56;  566.525;-7.9295e-002
1177.95;  568.721;-7.9846e-002
1182.34;  570.917;-8.0369e-002
1186.72;  573.112;-8.0855e-002
1191.12;  575.308;-8.1283e-002
1195.52;  577.504;-8.1764e-002
1199.91;  579.7;-8.2130e-002
1204.3;  581.896;-8.2483e-002
1208.7;  584.092;-8.2822e-002
1213.07;  586.287;-8.3134e-002
1217.48;  588.483;-8.3395e-002
1221.86;  590.679;-8.3662e-002
1226.24;  592.875;-8.3911e-002
1230.65;  595.071;-8.4142e-002
1235.04;  597.267;-8.4333e-002
1239.43;  599.463;-8.4577e-002
1243.83;  601.658;-8.4758e-002
1248.21;  603.854;-8.4965e-002
1252.6;  606.05;-8.5121e-002
1256.99;  608.246;-8.5276e-002
1261.38;  610.442;-8.5445e-002
1265.77;  612.638;-8.5558e-002
1270.2;  614.833;-8.5723e-002
1274.57;  617.029;-8.5879e-002
1278.96;  619.225;-8.6084e-002
1283.34;  621.421;-8.6300e-002
1287.73;  623.617;-8.6609e-002
1292.14;  625.812;-8.7076e-002
1296.53;  628.008;-8.7501e-002
1300.92;  630.204;-8.7906e-002
1305.31;  632.4;-8.8341e-002
1309.69;  634.596;-8.8750e-002
1314.09;  636.792;-8.9121e-002
1318.5;  638.987;-8.9466e-002
1322.88;  641.183;-8.9712e-002
1327.27;  643.379;-8.9853e-002
1331.66;  645.575;-8.9688e-002
1336.07;  647.771;-8.9655e-002
1340.45;  649.967;-8.9474e-002
1344.83;  652.162;-8.9192e-002
1349.23;  654.358;-8.9475e-002
1350.47;  654.982;-8.9460e-002