File: 000392_correction_saphire_2_1450_Air-static.txt
#FILE:                 ;000392_correction_saphire_2_1450_Air-static.cle
#FORMAT:               ;NETZSCH5
#IDENTITY:             ;000392
#DECIMAL:              ;POINT
#SEPARATOR:            ;SEMICOLON
#MTYPE:                ;DIL
#MSUBTYPE:             ;
#INSTRUMENT:           ;NETZSCH DIL 402 C
#PROJECT:              ;
#DATE/TIME:            ;21.06.2021 21:23:43
#CORR. FILE:           ;
#LABORATORY:           ;НМ
#OPERATOR:             ;Орлов Н.
#REMARK:               ;
#SAMPLE:               ;corr_2
#SAMPLE LENGTH /mm:    ;3.010
#MATERIAL:             ;стандартный образец
#MEASMODE:             ;Standard Expansion
#PURGE GAS 1:          ;
#FLOW RATE 1 /(ml/min):;0
#CORR. CODE:           ;000
#RANGE:                ;40.0/2.0(K/мин)/1450.0
#SEGMENT:              ;S1/1

##Temp./°C;Time/min;dL/Lo
  40.45700;0.0000e+000; 0.0000e+000
  41.93300;    2.35167;-3.2475e-005
  45.18000;    4.70333;-1.2932e-004
  49.79800;    7.05500;-2.6225e-004
  55.34600;    9.40667;-3.9452e-004
  61.25300;   11.75833;-4.9950e-004
  67.13800;   14.11000;-5.5731e-004
  72.75100;   16.46167;-5.6632e-004
  78.04600;   18.81333;-5.3580e-004
  83.02100;   21.16500;-4.7849e-004
  87.76900;   23.51667;-4.0814e-004
  92.36200;   25.86833;-3.3451e-004
  96.89700;   28.22000;-2.6703e-004
 101.45;   30.57167;-2.0544e-004
 106.053;   32.92333;-1.5287e-004
 110.71;   35.27500;-1.0544e-004
 115.433;   37.62667;-5.9178e-005
 120.183;   39.97833;-1.6030e-005
 124.937;   42.33000; 2.9734e-005
 129.694;   44.68167; 7.6578e-005
 134.432;   47.03333; 1.2458e-004
 139.155;   49.38500; 1.7363e-004
 143.884;   51.73667; 2.2052e-004
 148.594;   54.08833; 2.6939e-004
 153.3;   56.44000; 3.1636e-004
 158.008;   58.79167; 3.6254e-004
 162.723;   61.14333; 4.0943e-004
 167.438;   63.49500; 4.5540e-004
 172.174;   65.84666; 4.9979e-004
 176.881;   68.19833; 5.4456e-004
 181.593;   70.55000; 5.9012e-004
 186.315;   72.90166; 6.3389e-004
 191.015;   75.25333; 6.7521e-004
 195.731;   77.60500; 7.2010e-004
 200.421;   79.95667; 7.6229e-004
 205.139;   82.30833; 8.0228e-004
 209.852;   84.66000; 8.4282e-004
 214.566;   87.01167; 8.8181e-004
 219.277;   89.36333; 9.2251e-004
 223.985;   91.71500; 9.6146e-004
 228.695;   94.06667; 1.0016e-003
 233.406;   96.41833; 1.0419e-003
 238.11;   98.77000; 1.0815e-003
 242.822;  101.122; 1.1201e-003
 247.53;  103.473; 1.1586e-003
 252.238;  105.825; 1.1973e-003
 256.952;  108.177; 1.2358e-003
 261.66;  110.528; 1.2730e-003
 266.359;  112.88; 1.3102e-003
 271.069;  115.232; 1.3484e-003
 275.772;  117.583; 1.3879e-003
 280.474;  119.935; 1.4246e-003
 285.195;  122.287; 1.4610e-003
 289.899;  124.638; 1.4976e-003
 294.598;  126.99; 1.5346e-003
 299.31;  129.342; 1.5699e-003
 304.019;  131.693; 1.6063e-003
 308.724;  134.045; 1.6418e-003
 313.432;  136.397; 1.6749e-003
 318.14;  138.748; 1.7115e-003
 322.841;  141.1; 1.7467e-003
 327.542;  143.452; 1.7803e-003
 332.248;  145.803; 1.8144e-003
 336.954;  148.155; 1.8501e-003
 341.666;  150.507; 1.8856e-003
 346.362;  152.858; 1.9174e-003
 351.069;  155.21; 1.9502e-003
 355.778;  157.562; 1.9861e-003
 360.485;  159.913; 2.0189e-003
 365.189;  162.265; 2.0524e-003
 369.887;  164.617; 2.0847e-003
 374.601;  166.968; 2.1165e-003
 379.304;  169.32; 2.1507e-003
 384;  171.672; 2.1802e-003
 388.709;  174.023; 2.2137e-003
 393.419;  176.375; 2.2456e-003
 398.123;  178.727; 2.2786e-003
 402.823;  181.078; 2.3129e-003
 407.532;  183.43; 2.3449e-003
 412.238;  185.782; 2.3736e-003
 416.935;  188.133; 2.4078e-003
 421.646;  190.485; 2.4405e-003
 426.345;  192.837; 2.4723e-003
 431.055;  195.188; 2.5030e-003
 435.753;  197.54; 2.5356e-003
 440.463;  199.892; 2.5691e-003
 445.168;  202.243; 2.6023e-003
 449.866;  204.595; 2.6338e-003
 454.573;  206.947; 2.6689e-003
 459.267;  209.298; 2.7010e-003
 463.97;  211.65; 2.7349e-003
 468.678;  214.002; 2.7664e-003
 473.383;  216.353; 2.7995e-003
 478.089;  218.705; 2.8340e-003
 482.79;  221.057; 2.8668e-003
 487.487;  223.408; 2.8977e-003
 492.192;  225.76; 2.9313e-003
 496.897;  228.112; 2.9639e-003
 501.592;  230.463; 2.9945e-003
 506.307;  232.815; 3.0289e-003
 511.017;  235.167; 3.0586e-003
 515.719;  237.518; 3.0924e-003
 520.408;  239.87; 3.1264e-003
 525.119;  242.222; 3.1578e-003
 529.824;  244.573; 3.1923e-003
 534.526;  246.925; 3.2275e-003
 539.234;  249.277; 3.2604e-003
 543.928;  251.628; 3.2945e-003
 548.637;  253.98; 3.3324e-003
 553.342;  256.332; 3.3648e-003
 558.051;  258.683; 3.3955e-003
 562.749;  261.035; 3.4319e-003
 567.455;  263.387; 3.4630e-003
 572.15;  265.738; 3.4969e-003
 576.849;  268.09; 3.5300e-003
 581.551;  270.442; 3.5655e-003
 586.262;  272.793; 3.6016e-003
 590.955;  275.145; 3.6328e-003
 595.665;  277.497; 3.6680e-003
 600.361;  279.848; 3.7023e-003
 605.056;  282.2; 3.7354e-003
 609.763;  284.552; 3.7718e-003
 614.468;  286.903; 3.8071e-003
 619.169;  289.255; 3.8439e-003
 623.871;  291.607; 3.8801e-003
 628.565;  293.958; 3.9157e-003
 633.263;  296.31; 3.9529e-003
 637.982;  298.662; 3.9855e-003
 642.681;  301.013; 4.0240e-003
 647.374;  303.365; 4.0562e-003
 652.082;  305.717; 4.0956e-003
 656.78;  308.068; 4.1293e-003
 661.482;  310.42; 4.1679e-003
 666.189;  312.772; 4.2056e-003
 670.883;  315.123; 4.2449e-003
 675.582;  317.475; 4.2778e-003
 680.298;  319.827; 4.3132e-003
 684.993;  322.178; 4.3530e-003
 689.697;  324.53; 4.3903e-003
 694.395;  326.882; 4.4276e-003
 699.103;  329.233; 4.4650e-003
 703.808;  331.585; 4.5012e-003
 708.506;  333.937; 4.5398e-003
 713.206;  336.288; 4.5789e-003
 717.911;  338.64; 4.6189e-003
 722.598;  340.992; 4.6569e-003
 727.297;  343.343; 4.6927e-003
 732.002;  345.695; 4.7330e-003
 736.705;  348.047; 4.7721e-003
 741.409;  350.398; 4.8118e-003
 746.11;  352.75; 4.8503e-003
 750.817;  355.102; 4.8946e-003
 755.508;  357.453; 4.9328e-003
 760.213;  359.805; 4.9732e-003
 764.918;  362.157; 5.0143e-003
 769.617;  364.508; 5.0544e-003
 774.306;  366.86; 5.0910e-003
 779.008;  369.212; 5.1349e-003
 783.706;  371.563; 5.1729e-003
 788.417;  373.915; 5.2129e-003
 793.118;  376.267; 5.2532e-003
 797.822;  378.618; 5.2971e-003
 802.527;  380.97; 5.3391e-003
 807.239;  383.322; 5.3819e-003
 811.939;  385.673; 5.4258e-003
 816.643;  388.025; 5.4713e-003
 821.335;  390.377; 5.5098e-003
 826.04;  392.728; 5.5525e-003
 830.739;  395.08; 5.5988e-003
 835.446;  397.432; 5.6411e-003
 840.146;  399.783; 5.6829e-003
 844.855;  402.135; 5.7253e-003
 849.551;  404.487; 5.7670e-003
 854.242;  406.838; 5.8046e-003
 858.945;  409.19; 5.8542e-003
 863.647;  411.542; 5.8919e-003
 868.348;  413.893; 5.9373e-003
 873.063;  416.245; 5.9832e-003
 877.755;  418.597; 6.0282e-003
 882.448;  420.948; 6.0692e-003
 887.162;  423.3; 6.1116e-003
 891.858;  425.652; 6.1589e-003
 896.57;  428.003; 6.2003e-003
 901.268;  430.355; 6.2480e-003
 905.97;  432.707; 6.2889e-003
 910.674;  435.058; 6.3336e-003
 915.377;  437.41; 6.3809e-003
 920.077;  439.762; 6.4226e-003
 924.786;  442.113; 6.4692e-003
 929.469;  444.465; 6.5155e-003
 934.181;  446.817; 6.5561e-003
 938.886;  449.168; 6.6040e-003
 943.586;  451.52; 6.6481e-003
 948.284;  453.872; 6.6933e-003
 952.981;  456.223; 6.7390e-003
 957.684;  458.575; 6.7835e-003
 962.399;  460.927; 6.8280e-003
 967.096;  463.278; 6.8739e-003
 971.78;  465.63; 6.9211e-003
 976.494;  467.982; 6.9624e-003
 981.209;  470.333; 7.0099e-003
 985.894;  472.685; 7.0545e-003
 990.598;  475.037; 7.1024e-003
 995.307;  477.388; 7.1509e-003
1000.02;  479.74; 7.1938e-003
1004.71;  482.092; 7.2383e-003
1009.41;  484.443; 7.2887e-003
1014.12;  486.795; 7.3376e-003
1018.83;  489.147; 7.3868e-003
1023.52;  491.498; 7.4332e-003
1028.22;  493.85; 7.4839e-003
1032.94;  496.202; 7.5309e-003
1037.64;  498.553; 7.5773e-003
1042.33;  500.905; 7.6287e-003
1047.04;  503.257; 7.6777e-003
1051.74;  505.608; 7.7247e-003
1056.43;  507.96; 7.7803e-003
1061.14;  510.312; 7.8344e-003
1065.86;  512.663; 7.8833e-003
1070.55;  515.015; 7.9280e-003
1075.24;  517.367; 7.9820e-003
1079.95;  519.718; 8.0303e-003
1084.65;  522.07; 8.0821e-003
1089.36;  524.422; 8.1310e-003
1094.06;  526.773; 8.1836e-003
1098.76;  529.125; 8.2358e-003
1103.47;  531.477; 8.2811e-003
1108.15;  533.828; 8.3394e-003
1112.86;  536.18; 8.3896e-003
1117.57;  538.532; 8.4406e-003
1122.29;  540.883; 8.4904e-003
1126.97;  543.235; 8.5427e-003
1131.68;  545.587; 8.5960e-003
1136.38;  547.938; 8.6490e-003
1141.07;  550.29; 8.7037e-003
1145.79;  552.642; 8.7495e-003
1150.49;  554.993; 8.8007e-003
1155.2;  557.345; 8.8569e-003
1159.88;  559.697; 8.9065e-003
1164.58;  562.048; 8.9633e-003
1169.31;  564.4; 9.0103e-003
1174.01;  566.752; 9.0589e-003
1178.71;  569.103; 9.1125e-003
1183.41;  571.455; 9.1702e-003
1188.11;  573.807; 9.2189e-003
1192.82;  576.158; 9.2667e-003
1197.51;  578.51; 9.3115e-003
1202.21;  580.862; 9.3662e-003
1206.93;  583.213; 9.4240e-003
1211.64;  585.565; 9.4724e-003
1216.34;  587.917; 9.5312e-003
1221.04;  590.268; 9.5727e-003
1225.74;  592.62; 9.6281e-003
1230.43;  594.972; 9.6786e-003
1235.16;  597.323; 9.7243e-003
1239.85;  599.675; 9.7723e-003
1244.56;  602.027; 9.8234e-003
1249.26;  604.378; 9.8755e-003
1253.96;  606.73; 9.9282e-003
1258.66;  609.082; 9.9747e-003
1263.37;  611.433; 1.0023e-002
1268.06;  613.785; 1.0067e-002
1272.78;  616.137; 1.0106e-002
1277.47;  618.488; 1.0152e-002
1282.18;  620.84; 1.0196e-002
1286.86;  623.192; 1.0238e-002
1291.58;  625.543; 1.0273e-002
1296.29;  627.895; 1.0303e-002
1300.99;  630.247; 1.0345e-002
1305.7;  632.598; 1.0388e-002
1310.39;  634.95; 1.0421e-002
1315.09;  637.302; 1.0448e-002
1319.79;  639.653; 1.0474e-002
1324.51;  642.005; 1.0494e-002
1329.22;  644.357; 1.0525e-002
1333.92;  646.708; 1.0556e-002
1338.62;  649.06; 1.0576e-002
1343.31;  651.412; 1.0600e-002
1348.02;  653.763; 1.0616e-002
1352.73;  656.115; 1.0636e-002
1357.43;  658.467; 1.0646e-002
1362.12;  660.818; 1.0661e-002
1366.83;  663.17; 1.0667e-002
1371.53;  665.522; 1.0679e-002
1376.24;  667.873; 1.0677e-002
1380.94;  670.225; 1.0681e-002
1385.64;  672.577; 1.0677e-002
1390.35;  674.928; 1.0693e-002
1395.06;  677.28; 1.0685e-002
1399.76;  679.632; 1.0674e-002
1404.45;  681.983; 1.0664e-002
1409.17;  684.335; 1.0638e-002
1413.87;  686.687; 1.0626e-002
1418.6;  689.038; 1.0597e-002
1423.28;  691.39; 1.0559e-002
1427.97;  693.742; 1.0520e-002
1432.71;  696.093; 1.0483e-002
1437.39;  698.445; 1.0441e-002
1442.1;  700.797; 1.0392e-002
1446.8;  703.148; 1.0335e-002
1450.48;  704.99; 1.0286e-002