File: 000393_K06_20_1450_Air-static.txt
#FILE:                 ;000393_K06_20_1450_Air-static.sle
#FORMAT:               ;NETZSCH5
#IDENTITY:             ;000393
#DECIMAL:              ;POINT
#SEPARATOR:            ;SEMICOLON
#MTYPE:                ;DIL
#MSUBTYPE:             ;
#INSTRUMENT:           ;NETZSCH DIL 402 C
#PROJECT:              ;
#DATE/TIME:            ;22.06.2021 12:24:13
#CORR. FILE:           ;
#LABORATORY:           ;НМ
#OPERATOR:             ;Орлов Н.
#REMARK:               ;
#SAMPLE:               ;K06_20
#SAMPLE LENGTH /mm:    ;2.170
#MATERIAL:             ;стандартный образец
#MEASMODE:             ;Standard Expansion
#PURGE GAS 1:          ;
#FLOW RATE 1 /(ml/min):;0
#CORR. CODE:           ;000
#RANGE:                ;40.0/20.0(K/мин)/1450.0
#SEGMENT:              ;S1/1

##Temp./°C;Time/min;dL/Lo
  40.47500;0.0000e+000; 0.0000e+000
  40.52800;    0.24000;-9.2166e-006
  41.13900;    0.48000;-2.4194e-005
  42.58100;    0.72000;-5.5300e-005
  44.11900;    0.96000;-1.0253e-004
  45.69400;    1.20000;-1.5726e-004
  47.58300;    1.44000;-2.2293e-004
  50.00800;    1.68000;-2.9896e-004
  52.68100;    1.92000;-3.9055e-004
  55.55800;    2.16000;-4.9539e-004
  58.72700;    2.40000;-6.1233e-004
  62.24900;    2.64000;-7.4251e-004
  66.03400;    2.88000;-8.8479e-004
  70.06300;    3.12000;-1.0415e-003
  74.36800;    3.36000;-1.2091e-003
  78.92000;    3.60000;-1.3882e-003
  83.71700;    3.84000;-1.5801e-003
  88.72700;    4.08000;-1.7794e-003
  93.91500;    4.32000;-1.9856e-003
  99.26400;    4.56000;-2.2028e-003
 104.778;    4.80000;-2.4257e-003
 110.424;    5.04000;-2.6457e-003
 116.191;    5.28000;-2.8658e-003
 122.101;    5.52000;-3.0818e-003
 128.106;    5.76000;-3.2915e-003
 134.088;    6.00000;-3.4977e-003
 139.501;    6.24000;-3.6964e-003
 144.873;    6.48000;-3.8865e-003
 150.466;    6.72000;-4.0651e-003
 155.978;    6.96000;-4.2287e-003
 161.452;    7.20000;-4.3813e-003
 166.942;    7.44000;-4.5230e-003
 172.391;    7.68000;-4.6550e-003
 177.858;    7.92000;-4.7667e-003
 183.304;    8.16000;-4.8675e-003
 188.743;    8.40000;-4.9533e-003
 194.156;    8.64000;-5.0202e-003
 199.581;    8.88000;-5.0737e-003
 204.987;    9.12000;-5.1089e-003
 210.394;    9.36000;-5.1285e-003
 215.792;    9.60000;-5.1342e-003
 221.176;    9.84000;-5.1244e-003
 226.582;   10.08000;-5.0991e-003
 231.939;   10.32000;-5.0611e-003
 237.336;   10.56000;-5.0138e-003
 242.707;   10.80000;-4.9574e-003
 248.084;   11.04000;-4.8894e-003
 253.487;   11.28000;-4.8157e-003
 258.984;   11.52000;-4.7316e-003
 264.617;   11.76000;-4.6331e-003
 270.392;   12.00000;-4.5242e-003
 276.056;   12.24000;-4.4113e-003
 281.613;   12.48000;-4.2932e-003
 287.063;   12.72000;-4.1694e-003
 292.44;   12.96000;-4.0340e-003
 297.819;   13.20000;-3.8894e-003
 303.197;   13.44000;-3.7391e-003
 308.597;   13.68000;-3.5806e-003
 314.016;   13.92000;-3.4194e-003
 319.414;   14.16000;-3.2546e-003
 324.841;   14.40000;-3.0893e-003
 330.262;   14.64000;-2.9211e-003
 335.658;   14.88000;-2.7529e-003
 341.08;   15.12000;-2.5795e-003
 346.481;   15.36000;-2.4055e-003
 351.826;   15.60000;-2.2281e-003
 357.392;   15.84000;-2.0501e-003
 362.945;   16.08000;-1.8750e-003
 367.268;   16.32000;-1.6849e-003
 371.378;   16.56000;-1.4971e-003
 375.545;   16.80000;-1.3232e-003
 379.921;   17.04000;-1.1555e-003
 384.555;   17.28000;-1.0017e-003
 389.419;   17.52000;-8.5772e-004
 394.418;   17.76000;-7.1832e-004
 399.517;   18.00000;-5.8007e-004
 404.635;   18.24000;-4.4009e-004
 409.771;   18.48000;-2.9954e-004
 414.908;   18.72000;-1.6071e-004
 420.039;   18.96000;-1.6129e-005
 425.145;   19.20000; 1.2558e-004
 430.252;   19.44000; 2.7247e-004
 435.348;   19.68000; 4.1936e-004
 440.428;   19.92000; 5.7200e-004
 445.497;   20.16000; 7.2293e-004
 450.562;   20.40000; 8.7730e-004
 455.61;   20.64000; 1.0340e-003
 460.623;   20.88000; 1.1930e-003
 465.642;   21.12000; 1.3531e-003
 470.64;   21.36000; 1.5184e-003
 475.628;   21.60000; 1.6843e-003
 480.593;   21.84000; 1.8525e-003
 485.558;   22.08000; 2.0219e-003
 490.485;   22.32000; 2.1895e-003
 495.409;   22.56000; 2.3635e-003
 500.336;   22.80000; 2.5392e-003
 505.212;   23.04000; 2.7103e-003
 510.088;   23.28000; 2.8836e-003
 514.97;   23.52000; 3.0570e-003
 519.834;   23.76000; 3.2270e-003
 524.681;   24.00000; 3.4027e-003
 529.541;   24.24000; 3.5795e-003
 534.379;   24.48000; 3.7540e-003
 539.208;   24.72000; 3.9245e-003
 544.04;   24.96000; 4.1008e-003
 548.875;   25.20000; 4.2707e-003
 553.691;   25.44000; 4.4447e-003
 558.498;   25.68000; 4.6129e-003
 563.307;   25.92000; 4.7846e-003
 568.093;   26.16000; 4.9551e-003
 572.89;   26.40000; 5.1192e-003
 577.686;   26.64000; 5.2851e-003
 582.49;   26.88000; 5.4505e-003
 587.264;   27.12000; 5.6158e-003
 592.042;   27.36000; 5.7777e-003
 596.822;   27.60000; 5.9389e-003
 601.59;   27.84000; 6.0962e-003
 606.364;   28.08000; 6.2483e-003
 611.145;   28.32000; 6.4027e-003
 615.914;   28.56000; 6.5501e-003
 620.683;   28.80000; 6.7005e-003
 625.441;   29.04000; 6.8491e-003
 630.205;   29.28000; 6.9862e-003
 634.985;   29.52000; 7.1296e-003
 639.742;   29.76000; 7.2702e-003
 644.499;   30.00000; 7.4009e-003
 649.272;   30.24000; 7.5317e-003
 654.036;   30.48000; 7.6688e-003
 658.797;   30.72000; 7.7921e-003
 663.567;   30.96000; 7.9165e-003
 668.329;   31.20000; 8.0374e-003
 673.088;   31.44000; 8.1544e-003
 677.852;   31.68000; 8.2679e-003
 682.615;   31.92000; 8.3813e-003
 687.376;   32.16000; 8.4960e-003
 692.157;   32.40000; 8.6348e-003
 696.919;   32.64000; 8.7673e-003
 701.693;   32.88000; 8.8980e-003
 706.481;   33.12000; 9.0156e-003
 711.235;   33.36000; 9.1331e-003
 715.995;   33.60000; 9.2477e-003
 720.768;   33.84000; 9.3543e-003
 725.52;   34.08000; 9.4562e-003
 730.286;   34.32000; 9.5547e-003
 735.041;   34.56000; 9.6498e-003
 739.797;   34.80000; 9.7385e-003
 744.558;   35.04000; 9.8209e-003
 749.324;   35.28000; 9.8998e-003
 754.08;   35.52000; 9.9781e-003
 758.843;   35.76000; 1.0044e-002
 763.588;   36.00000; 1.0109e-002
 768.351;   36.24000; 1.0169e-002
 773.116;   36.48000; 1.0217e-002
 777.877;   36.72000; 1.0253e-002
 782.652;   36.96000; 1.0297e-002
 787.406;   37.20000; 1.0320e-002
 792.196;   37.44000; 1.0333e-002
 796.946;   37.68000; 1.0343e-002
 801.709;   37.92000; 1.0333e-002
 806.49;   38.16000; 1.0320e-002
 811.244;   38.40000; 1.0290e-002
 816.042;   38.64000; 1.0249e-002
 820.798;   38.88000; 1.0184e-002
 825.56;   39.12000; 1.0110e-002
 830.329;   39.36000; 1.0024e-002
 835.095;   39.60000; 9.9176e-003
 839.863;   39.84000; 9.7949e-003
 844.639;   40.08000; 9.6550e-003
 849.407;   40.32000; 9.4971e-003
 854.17;   40.56000; 9.3214e-003
 858.938;   40.80000; 9.1273e-003
 863.698;   41.04000; 8.9171e-003
 868.479;   41.28000; 8.6872e-003
 873.243;   41.52000; 8.4412e-003
 878.012;   41.76000; 8.1797e-003
 882.776;   42.00000; 7.9015e-003
 887.548;   42.24000; 7.6043e-003
 892.313;   42.48000; 7.2944e-003
 897.085;   42.72000; 6.9729e-003
 901.845;   42.96000; 6.6457e-003
 906.624;   43.20000; 6.3059e-003
 911.397;   43.44000; 5.9528e-003
 916.158;   43.68000; 5.5835e-003
 920.936;   43.92000; 5.2028e-003
 925.701;   44.16000; 4.8116e-003
 930.466;   44.40000; 4.4021e-003
 935.232;   44.64000; 3.9804e-003
 940.007;   44.88000; 3.5444e-003
 944.771;   45.12000; 3.0858e-003
 949.54;   45.36000; 2.5991e-003
 954.308;   45.60000; 2.0657e-003
 959.068;   45.84000; 1.5121e-003
 963.836;   46.08000; 9.4470e-004
 968.621;   46.32000; 3.5714e-004
 973.38;   46.56000;-2.4654e-004
 978.156;   46.80000;-8.7327e-004
 982.919;   47.04000;-1.5277e-003
 987.695;   47.28000;-2.2033e-003
 992.473;   47.52000;-2.8963e-003
 997.244;   47.76000;-3.6037e-003
1002.02;   48.00000;-4.2696e-003
1006.78;   48.24000;-4.9712e-003
1011.56;   48.48000;-5.7010e-003
1016.34;   48.72000;-6.3802e-003
1021.11;   48.96000;-7.1152e-003
1025.89;   49.20000;-7.8969e-003
1030.67;   49.44000;-8.7154e-003
1035.43;   49.68000;-9.5795e-003
1040.22;   49.92000;-1.0478e-002
1044.98;   50.16000;-1.1404e-002
1049.75;   50.40000;-1.2376e-002
1054.53;   50.64000;-1.3368e-002
1059.31;   50.88000;-1.4386e-002
1064.08;   51.12000;-1.5434e-002
1068.85;   51.36000;-1.6498e-002
1073.63;   51.60000;-1.7584e-002
1078.4;   51.84000;-1.8694e-002
1083.19;   52.08000;-1.9808e-002
1087.97;   52.32000;-2.0957e-002
1092.74;   52.56000;-2.2124e-002
1097.5;   52.80000;-2.3321e-002
1102.28;   53.04000;-2.4533e-002
1107.06;   53.28000;-2.5790e-002
1111.84;   53.52000;-2.7066e-002
1116.61;   53.76000;-2.8338e-002
1121.4;   54.00000;-2.9668e-002
1126.18;   54.24000;-3.0999e-002
1130.94;   54.48000;-3.2385e-002
1135.74;   54.72000;-3.3775e-002
1140.52;   54.96000;-3.5202e-002
1145.29;   55.20000;-3.6640e-002
1150.09;   55.44000;-3.8096e-002
1154.86;   55.68000;-3.9580e-002
1159.64;   55.92000;-4.1088e-002
1164.42;   56.16000;-4.2595e-002
1169.2;   56.40000;-4.4158e-002
1173.98;   56.64000;-4.5724e-002
1178.77;   56.88000;-4.7289e-002
1183.55;   57.12000;-4.8850e-002
1188.34;   57.36000;-5.0403e-002
1193.12;   57.60000;-5.1989e-002
1197.9;   57.84000;-5.3562e-002
1202.69;   58.08000;-5.5119e-002
1207.47;   58.32000;-5.6585e-002
1212.27;   58.56000;-5.8089e-002
1217.05;   58.80000;-5.9518e-002
1221.82;   59.04000;-6.0839e-002
1226.61;   59.28000;-6.2148e-002
1231.4;   59.52000;-6.3407e-002
1236.18;   59.76000;-6.4548e-002
1240.96;   60.00000;-6.5718e-002
1245.75;   60.24000;-6.6805e-002
1250.56;   60.48000;-6.7839e-002
1255.33;   60.72000;-6.8887e-002
1260.12;   60.96000;-6.9850e-002
1264.91;   61.20000;-7.0794e-002
1269.71;   61.44000;-7.1730e-002
1274.51;   61.68000;-7.2604e-002
1279.3;   61.92000;-7.3395e-002
1284.1;   62.16000;-7.4253e-002
1288.88;   62.40000;-7.4964e-002
1293.68;   62.64000;-7.5710e-002
1298.48;   62.88000;-7.6357e-002
1303.25;   63.12000;-7.6958e-002
1308.05;   63.36000;-7.7478e-002
1312.85;   63.60000;-7.7968e-002
1317.66;   63.84000;-7.8331e-002
1322.45;   64.08000;-7.8631e-002
1327.23;   64.32000;-7.8978e-002
1332.03;   64.56000;-7.9305e-002
1336.84;   64.80000;-7.9634e-002
1341.61;   65.04000;-7.9994e-002
1346.4;   65.28000;-8.0281e-002
1351.18;   65.52000;-8.0660e-002
1355.97;   65.76000;-8.1062e-002
1360.76;   66.00000;-8.1383e-002
1365.57;   66.24000;-8.1812e-002
1370.37;   66.48000;-8.2395e-002
1375.16;   66.72000;-8.2838e-002
1379.96;   66.96000;-8.3471e-002
1384.75;   67.20000;-8.3805e-002
1389.56;   67.44000;-8.3783e-002
1394.35;   67.68000;-8.3819e-002
1399.15;   67.92000;-8.4074e-002
1403.95;   68.16000;-8.4585e-002
1408.74;   68.40000;-8.4381e-002
1413.55;   68.64000;-8.5075e-002
1418.35;   68.88000;-8.5937e-002
1423.14;   69.12000;-8.5686e-002
1427.93;   69.36000;-8.5139e-002
1432.75;   69.60000;-8.3460e-002
1437.56;   69.84000;-8.3371e-002
1442.35;   70.08000;-7.9589e-002
1447.15;   70.32000;-7.6808e-002
1450.35;   70.48000;-7.6798e-002