File: 000401_K06_1_1350_Air-static.txt
#FILE:                 ;000401_K06_1_1350_Air-static.sle
#FORMAT:               ;NETZSCH5
#IDENTITY:             ;000401
#DECIMAL:              ;POINT
#SEPARATOR:            ;SEMICOLON
#MTYPE:                ;DIL
#MSUBTYPE:             ;
#INSTRUMENT:           ;NETZSCH DIL 402 C
#PROJECT:              ;
#DATE/TIME:            ;26.06.2021 20:15:00
#CORR. FILE:           ;
#LABORATORY:           ;НМ
#OPERATOR:             ;Орлов Н.
#REMARK:               ;
#SAMPLE:               ;K06_1
#SAMPLE LENGTH /mm:    ;2.910
#MATERIAL:             ;стандартный образец
#MEASMODE:             ;Standard Expansion
#PURGE GAS 1:          ;
#FLOW RATE 1 /(ml/min):;0
#CORR. CODE:           ;000
#RANGE:                ;40.0/1.0(K/мин)/1350.0
#SEGMENT:              ;S1/1

##Temp./°C;Time/min;dL/Lo
  40.29600;0.0000e+000; 0.0000e+000
  42.60000;    4.37500;-5.5412e-005
  47.06500;    8.75000;-1.5249e-004
  52.40600;   13.12500;-2.1220e-004
  57.61500;   17.50000;-2.0747e-004
  62.32300;   21.87500;-1.6151e-004
  66.66700;   26.25000;-9.6220e-005
  70.90700;   30.62500;-4.1237e-005
  75.20300;   35.00000; 1.0739e-005
  79.57600;   39.37500; 5.7560e-005
  83.98100;   43.75000; 1.0610e-004
  88.38800;   48.12500; 1.5550e-004
  92.79500;   52.50000; 2.1306e-004
  97.17800;   56.87500; 2.7191e-004
 101.553;   61.25000; 3.3333e-004
 105.935;   65.62500; 3.9304e-004
 110.324;   70.00000; 4.5747e-004
 114.724;   74.37500; 5.2406e-004
 119.113;   78.75000; 5.9107e-004
 123.503;   83.12500; 6.5894e-004
 127.895;   87.50000; 7.2938e-004
 132.257;   91.87500; 7.9983e-004
 136.65;   96.25000; 8.6985e-004
 141.033;  100.625; 9.4459e-004
 145.412;  105; 1.0180e-003
 149.798;  109.375; 1.0889e-003
 154.183;  113.75; 1.1641e-003
 158.565;  118.125; 1.2393e-003
 162.947;  122.5; 1.3123e-003
 167.337;  126.875; 1.3849e-003
 171.714;  131.25; 1.4609e-003
 176.092;  135.625; 1.5326e-003
 180.479;  140; 1.6070e-003
 184.86;  144.375; 1.6830e-003
 189.234;  148.75; 1.7543e-003
 193.613;  153.125; 1.8312e-003
 197.989;  157.5; 1.9064e-003
 202.373;  161.875; 1.9850e-003
 206.759;  166.25; 2.0614e-003
 211.15;  170.625; 2.1452e-003
 215.564;  175; 2.2259e-003
 219.96;  179.375; 2.3101e-003
 224.343;  183.75; 2.3956e-003
 228.674;  188.125; 2.4751e-003
 232.997;  192.5; 2.5520e-003
 237.363;  196.875; 2.6276e-003
 241.739;  201.25; 2.7083e-003
 246.101;  205.625; 2.7878e-003
 250.486;  210; 2.8707e-003
 254.882;  214.375; 2.9609e-003
 259.266;  218.75; 3.0498e-003
 263.665;  223.125; 3.1370e-003
 268.038;  227.5; 3.2217e-003
 272.42;  231.875; 3.3101e-003
 276.802;  236.25; 3.3935e-003
 281.173;  240.625; 3.4845e-003
 285.551;  245; 3.5662e-003
 289.93;  249.375; 3.6499e-003
 294.302;  253.75; 3.7358e-003
 298.672;  258.125; 3.8200e-003
 303.057;  262.5; 3.9042e-003
 307.437;  266.875; 3.9807e-003
 311.818;  271.25; 4.0636e-003
 316.187;  275.625; 4.1413e-003
 320.563;  280; 4.2152e-003
 324.95;  284.375; 4.3037e-003
 329.318;  288.75; 4.3793e-003
 333.69;  293.125; 4.4643e-003
 338.074;  297.5; 4.5412e-003
 342.449;  301.875; 4.6177e-003
 346.821;  306.25; 4.6899e-003
 351.2;  310.625; 4.7599e-003
 355.571;  315; 4.8243e-003
 359.954;  319.375; 4.8806e-003
 364.33;  323.75; 4.9356e-003
 368.704;  328.125; 4.9850e-003
 373.083;  332.5; 5.0309e-003
 377.459;  336.875; 5.0692e-003
 381.832;  341.25; 5.0945e-003
 386.211;  345.625; 5.1220e-003
 390.582;  350; 5.1409e-003
 394.952;  354.375; 5.1538e-003
 399.331;  358.75; 5.1624e-003
 403.708;  363.125; 5.1710e-003
 408.083;  367.5; 5.1783e-003
 412.459;  371.875; 5.2010e-003
 416.838;  376.25; 5.2315e-003
 421.212;  380.625; 5.2728e-003
 425.582;  385; 5.3308e-003
 429.967;  389.375; 5.3982e-003
 434.344;  393.75; 5.4759e-003
 438.713;  398.125; 5.5507e-003
 443.093;  402.5; 5.6349e-003
 447.465;  406.875; 5.7113e-003
 451.841;  411.25; 5.7968e-003
 456.215;  415.625; 5.8754e-003
 460.588;  420; 5.9506e-003
 464.967;  424.375; 6.0348e-003
 469.342;  428.75; 6.1156e-003
 473.718;  433.125; 6.1989e-003
 478.1;  437.5; 6.2784e-003
 482.464;  441.875; 6.3565e-003
 486.846;  446.25; 6.4412e-003
 491.22;  450.625; 6.5172e-003
 495.596;  455; 6.5915e-003
 499.973;  459.375; 6.6692e-003
 504.344;  463.75; 6.7410e-003
 508.72;  468.125; 6.8123e-003
 513.094;  472.5; 6.8853e-003
 517.471;  476.875; 6.9545e-003
 521.845;  481.25; 7.0163e-003
 526.217;  485.625; 7.0825e-003
 530.596;  490; 7.1413e-003
 534.972;  494.375; 7.2049e-003
 539.348;  498.75; 7.2646e-003
 543.728;  503.125; 7.3252e-003
 548.097;  507.5; 7.3793e-003
 552.47;  511.875; 7.4373e-003
 556.84;  516.25; 7.4828e-003
 561.222;  520.625; 7.5331e-003
 565.594;  525; 7.5842e-003
 569.963;  529.375; 7.6306e-003
 574.348;  533.75; 7.6770e-003
 578.716;  538.125; 7.7096e-003
 583.102;  542.5; 7.7479e-003
 587.467;  546.875; 7.7887e-003
 591.838;  551.25; 7.8192e-003
 596.217;  555.625; 7.8475e-003
 600.578;  560; 7.8746e-003
 604.973;  564.375; 7.9003e-003
 609.341;  568.75; 7.9197e-003
 613.714;  573.125; 7.9313e-003
 618.091;  577.5; 7.9553e-003
 622.467;  581.875; 7.9712e-003
 626.837;  586.25; 7.9888e-003
 631.22;  590.625; 7.9961e-003
 635.586;  595; 8.0039e-003
 639.969;  599.375; 8.0013e-003
 644.331;  603.75; 8.0077e-003
 648.714;  608.125; 8.0030e-003
 653.091;  612.5; 8.0232e-003
 657.458;  616.875; 8.0279e-003
 661.832;  621.25; 8.0292e-003
 666.208;  625.625; 8.0275e-003
 670.58;  630; 8.0232e-003
 674.954;  634.375; 8.0129e-003
 679.332;  638.75; 7.9970e-003
 683.7;  643.125; 7.9794e-003
 688.072;  647.5; 7.9605e-003
 692.463;  651.875; 7.9339e-003
 696.827;  656.25; 7.8909e-003
 701.208;  660.625; 7.8509e-003
 705.57;  665; 7.7981e-003
 709.95;  669.375; 7.7397e-003
 714.33;  673.75; 7.6710e-003
 718.701;  678.125; 7.5967e-003
 723.07;  682.5; 7.5013e-003
 727.451;  686.875; 7.4029e-003
 731.815;  691.25; 7.2904e-003
 736.199;  695.625; 7.1624e-003
 740.572;  700; 7.0232e-003
 744.952;  704.375; 6.8750e-003
 749.322;  708.75; 6.7019e-003
 753.69;  713.125; 6.5103e-003
 758.063;  717.5; 6.3076e-003
 762.428;  721.875; 6.0919e-003
 766.811;  726.25; 5.8548e-003
 771.188;  730.625; 5.5958e-003
 775.558;  735; 5.3329e-003
 779.931;  739.375; 5.0404e-003
 784.306;  743.75; 4.7328e-003
 788.677;  748.125; 4.4064e-003
 793.054;  752.5; 4.0601e-003
 797.432;  756.875; 3.6950e-003
 801.806;  761.25; 3.3119e-003
 806.177;  765.625; 2.9055e-003
 810.551;  770; 2.4781e-003
 814.938;  774.375; 2.0241e-003
 819.301;  778.75; 1.5357e-003
 823.677;  783.125; 1.0271e-003
 828.057;  787.5; 4.8797e-004
 832.432;  791.875;-6.4003e-005
 836.809;  796.25;-6.5077e-004
 841.168;  800.625;-1.2599e-003
 845.552;  805;-1.8973e-003
 849.931;  809.375;-2.5674e-003
 854.309;  813.75;-3.2582e-003
 858.673;  818.125;-3.9777e-003
 863.048;  822.5;-4.7238e-003
 867.416;  826.875;-5.4983e-003
 871.798;  831.25;-6.3003e-003
 876.173;  835.625;-7.1276e-003
 880.548;  840;-7.9966e-003
 884.925;  844.375;-8.8922e-003
 889.299;  848.75;-9.8205e-003
 893.665;  853.125;-1.0778e-002
 898.043;  857.5;-1.1775e-002
 902.415;  861.875;-1.2813e-002
 906.794;  866.25;-1.3873e-002
 911.168;  870.625;-1.4983e-002
 915.543;  875;-1.6117e-002
 919.909;  879.375;-1.7289e-002
 924.292;  883.75;-1.8481e-002
 928.666;  888.125;-1.9704e-002
 933.041;  892.5;-2.0970e-002
 937.42;  896.875;-2.2253e-002
 941.786;  901.25;-2.3551e-002
 946.155;  905.625;-2.4877e-002
 950.539;  910;-2.6218e-002
 954.912;  914.375;-2.7547e-002
 959.29;  918.75;-2.8871e-002
 963.644;  923.125;-3.0242e-002
 968.033;  927.5;-3.1594e-002
 972.41;  931.875;-3.2985e-002
 976.782;  936.25;-3.4412e-002
 981.16;  940.625;-3.5878e-002
 985.53;  945;-3.7353e-002
 989.907;  949.375;-3.8836e-002
 994.281;  953.75;-4.0305e-002
 998.663;  958.125;-4.1759e-002
1003.03;  962.5;-4.3220e-002
1007.4;  966.875;-4.4674e-002
1011.78;  971.25;-4.6177e-002
1016.16;  975.625;-4.7665e-002
1020.54;  980;-4.9122e-002
1024.9;  984.375;-5.0628e-002
1029.28;  988.75;-5.2113e-002
1033.65;  993.125;-5.3630e-002
1038.03;  997.5;-5.5094e-002
1042.41; 1001.88;-5.6569e-002
1046.77; 1006.25;-5.8030e-002
1051.15; 1010.62;-5.9466e-002
1055.52; 1015;-6.0858e-002
1059.9; 1019.38;-6.2305e-002
1064.26; 1023.75;-6.3710e-002
1068.66; 1028.12;-6.5069e-002
1073.02; 1032.5;-6.6425e-002
1077.39; 1036.88;-6.7742e-002
1081.77; 1041.25;-6.9024e-002
1086.14; 1045.62;-7.0301e-002
1090.53; 1050;-7.1514e-002
1094.89; 1054.38;-7.2689e-002
1099.27; 1058.75;-7.3821e-002
1103.66; 1063.12;-7.4887e-002
1108.01; 1067.5;-7.5936e-002
1112.39; 1071.88;-7.6974e-002
1116.77; 1076.25;-7.7897e-002
1121.15; 1080.62;-7.8855e-002
1125.53; 1085;-7.9712e-002
1129.89; 1089.38;-8.0520e-002
1134.27; 1093.75;-8.1219e-002
1138.65; 1098.12;-8.1989e-002
1143.03; 1102.5;-8.2687e-002
1147.4; 1106.88;-8.3348e-002
1151.77; 1111.25;-8.3900e-002
1156.16; 1115.62;-8.4491e-002
1160.52; 1120;-8.5003e-002
1164.9; 1124.38;-8.5486e-002
1169.26; 1128.75;-8.5926e-002
1173.65; 1133.12;-8.6273e-002
1178.01; 1137.5;-8.6680e-002
1182.4; 1141.88;-8.7031e-002
1186.76; 1146.25;-8.7289e-002
1191.14; 1150.62;-8.7616e-002
1195.51; 1155;-8.7875e-002
1199.89; 1159.38;-8.8091e-002
1204.27; 1163.75;-8.8301e-002
1208.63; 1168.12;-8.8433e-002
1213.02; 1172.5;-8.8682e-002
1217.39; 1176.88;-8.8769e-002
1221.76; 1181.25;-8.8894e-002
1226.14; 1185.62;-8.8997e-002
1230.5; 1190;-8.9063e-002
1234.88; 1194.38;-8.9139e-002
1239.25; 1198.75;-8.9214e-002
1243.63; 1203.12;-8.9182e-002
1248.02; 1207.5;-8.9006e-002
1252.39; 1211.88;-8.9046e-002
1256.78; 1216.25;-8.9259e-002
1261.14; 1220.62;-8.9384e-002
1265.52; 1225;-8.9598e-002
1269.9; 1229.38;-8.9637e-002
1274.25; 1233.75;-8.9669e-002
1278.64; 1238.12;-8.9543e-002
1283.03; 1242.5;-8.9077e-002
1287.38; 1246.88;-8.8972e-002
1291.76; 1251.25;-8.8606e-002
1296.14; 1255.62;-8.8211e-002
1300.51; 1260;-8.7958e-002
1304.89; 1264.38;-8.7637e-002
1309.26; 1268.75;-8.6894e-002
1313.63; 1273.12;-8.6000e-002
1318.01; 1277.5;-8.4485e-002
1322.4; 1281.88;-8.1794e-002
1326.77; 1286.25;-7.9089e-002
1331.14; 1290.62;-7.6787e-002
1335.5; 1295;-7.7365e-002
1339.88; 1299.38;-7.3988e-002
1344.26; 1303.75;-7.3763e-002
1348.64; 1308.12;-7.2605e-002
1350.51; 1310;-7.2232e-002