File: 000402_K06_10_1335_Air-static.txt
#FILE:                 ;000402_K06_10_1335_Air-static.sle
#FORMAT:               ;NETZSCH5
#IDENTITY:             ;000402
#DECIMAL:              ;POINT
#SEPARATOR:            ;SEMICOLON
#MTYPE:                ;DIL
#MSUBTYPE:             ;
#INSTRUMENT:           ;NETZSCH DIL 402 C
#PROJECT:              ;
#DATE/TIME:            ;28.06.2021 11:45:13
#CORR. FILE:           ;
#LABORATORY:           ;НМ
#OPERATOR:             ;Орлов Н.
#REMARK:               ;
#SAMPLE:               ;K06_10
#SAMPLE LENGTH /mm:    ;3.540
#MATERIAL:             ;стандартный образец
#MEASMODE:             ;Standard Expansion
#PURGE GAS 1:          ;
#FLOW RATE 1 /(ml/min):;0
#CORR. CODE:           ;000
#RANGE:                ;40.0/10.0(K/мин)/1335.0
#SEGMENT:              ;S1/1

##Temp./°C;Time/min;dL/Lo
  40.34100;0.0000e+000; 0.0000e+000
  40.51900;    0.44000;-4.2373e-006
  41.64000;    0.88000;-1.2712e-005
  43.15100;    1.32000;-3.7076e-005
  44.82700;    1.76000;-6.7444e-005
  47.11700;    2.20000;-1.0699e-004
  49.74400;    2.64000;-1.5819e-004
  52.73800;    3.08000;-2.1857e-004
  56.16300;    3.52000;-2.8708e-004
  59.92200;    3.96000;-3.6547e-004
  64.03000;    4.40000;-4.5127e-004
  68.44900;    4.84000;-5.4732e-004
  73.15300;    5.28000;-6.4548e-004
  78.13900;    5.72000;-7.5071e-004
  83.33600;    6.16000;-8.6158e-004
  88.70000;    6.60000;-9.7175e-004
  94.20700;    7.04000;-1.0844e-003
  99.82000;    7.48000;-1.2006e-003
 105.49;    7.92000;-1.3104e-003
 111.214;    8.36000;-1.4188e-003
 116.996;    8.80000;-1.5194e-003
 122.76;    9.24000;-1.6077e-003
 128.537;    9.68000;-1.6871e-003
 134.28;   10.12000;-1.7549e-003
 139.968;   10.56000;-1.8079e-003
 145.554;   11.00000;-1.8506e-003
 150.965;   11.44000;-1.8810e-003
 156.231;   11.88000;-1.8944e-003
 161.441;   12.32000;-1.8944e-003
 166.55;   12.76000;-1.8810e-003
 171.629;   13.20000;-1.8573e-003
 176.639;   13.64000;-1.8234e-003
 181.597;   14.08000;-1.7818e-003
 186.501;   14.52000;-1.7331e-003
 191.339;   14.96000;-1.6773e-003
 196.143;   15.40000;-1.6155e-003
 200.852;   15.84000;-1.5501e-003
 205.566;   16.28000;-1.4802e-003
 210.199;   16.72000;-1.4075e-003
 214.83;   17.16000;-1.3309e-003
 219.42;   17.60000;-1.2521e-003
 223.953;   18.04000;-1.1702e-003
 228.406;   18.48000;-1.0922e-003
 232.845;   18.92000;-1.0226e-003
 237.269;   19.36000;-9.3432e-004
 241.697;   19.80000;-8.4428e-004
 246.11;   20.24000;-7.5883e-004
 250.56;   20.68000;-6.6561e-004
 255.005;   21.12000;-5.7239e-004
 259.458;   21.56000;-4.8058e-004
 263.959;   22.00000;-3.8383e-004
 268.514;   22.44000;-2.8531e-004
 273.138;   22.88000;-1.8397e-004
 277.839;   23.32000;-8.3686e-005
 282.556;   23.76000; 1.9068e-005
 287.215;   24.20000; 1.1441e-004
 291.711;   24.64000; 2.0939e-004
 296.013;   25.08000; 3.0579e-004
 300.053;   25.52000; 4.0078e-004
 303.977;   25.96000; 4.8694e-004
 307.716;   26.40000; 5.7168e-004
 311.322;   26.84000; 6.5466e-004
 314.812;   27.28000; 7.3235e-004
 318.374;   27.72000; 8.0650e-004
 322.158;   28.16000; 8.6759e-004
 326.234;   28.60000; 9.2691e-004
 330.571;   29.04000; 9.7987e-004
 335.051;   29.48000; 1.0307e-003
 339.634;   29.92000; 1.0787e-003
 344.239;   30.36000; 1.1296e-003
 348.836;   30.80000; 1.1871e-003
 353.431;   31.24000; 1.2454e-003
 358.016;   31.68000; 1.3072e-003
 362.573;   32.12000; 1.3672e-003
 367.123;   32.56000; 1.4347e-003
 371.648;   33.00000; 1.5011e-003
 376.161;   33.44000; 1.5724e-003
 380.659;   33.88000; 1.6430e-003
 385.137;   34.32000; 1.7094e-003
 389.603;   34.76000; 1.7814e-003
 394.068;   35.20000; 1.8492e-003
 398.517;   35.64000; 1.9191e-003
 402.951;   36.08000; 1.9845e-003
 407.384;   36.52000; 2.0441e-003
 411.818;   36.96000; 2.1059e-003
 416.23;   37.40000; 2.1582e-003
 420.648;   37.84000; 2.2115e-003
 425.061;   38.28000; 2.2546e-003
 429.467;   38.72000; 2.2963e-003
 433.858;   39.16000; 2.3340e-003
 438.255;   39.60000; 2.3683e-003
 442.646;   40.04000; 2.4011e-003
 447.033;   40.48000; 2.4326e-003
 451.426;   40.92000; 2.4650e-003
 455.809;   41.36000; 2.5025e-003
 460.201;   41.80000; 2.5399e-003
 464.566;   42.24000; 2.5830e-003
 468.965;   42.68000; 2.6331e-003
 473.341;   43.12000; 2.6868e-003
 477.727;   43.56000; 2.7475e-003
 482.113;   44.00000; 2.8167e-003
 486.497;   44.44000; 2.8831e-003
 490.877;   44.88000; 2.9520e-003
 495.278;   45.32000; 3.0297e-003
 499.675;   45.76000; 3.0989e-003
 504.05;   46.20000; 3.1734e-003
 508.453;   46.64000; 3.2472e-003
 512.827;   47.08000; 3.3252e-003
 517.229;   47.52000; 3.4011e-003
 521.629;   47.96000; 3.4725e-003
 526.01;   48.40000; 3.5533e-003
 530.412;   48.84000; 3.6271e-003
 534.795;   49.28000; 3.7013e-003
 539.198;   49.72000; 3.7775e-003
 543.581;   50.16000; 3.8517e-003
 547.989;   50.60000; 3.9319e-003
 552.375;   51.04000; 4.0099e-003
 556.774;   51.48000; 4.0847e-003
 561.181;   51.92000; 4.1557e-003
 565.567;   52.36000; 4.2327e-003
 569.952;   52.80000; 4.3069e-003
 574.358;   53.24000; 4.3782e-003
 578.746;   53.68000; 4.4453e-003
 583.143;   54.12000; 4.5127e-003
 587.531;   54.56000; 4.5826e-003
 591.92;   55.00000; 4.6437e-003
 596.298;   55.44000; 4.7129e-003
 600.704;   55.88000; 4.7715e-003
 605.082;   56.32000; 4.8298e-003
 609.478;   56.76000; 4.8930e-003
 613.864;   57.20000; 4.9477e-003
 618.259;   57.64000; 5.0032e-003
 622.647;   58.08000; 5.0551e-003
 627.033;   58.52000; 5.1038e-003
 631.416;   58.96000; 5.1571e-003
 635.802;   59.40000; 5.2006e-003
 640.179;   59.84000; 5.2373e-003
 644.562;   60.28000; 5.2712e-003
 648.968;   60.72000; 5.3051e-003
 653.343;   61.16000; 5.3340e-003
 657.727;   61.60000; 5.3521e-003
 662.123;   62.04000; 5.3704e-003
 666.51;   62.48000; 5.4036e-003
 670.917;   62.92000; 5.4619e-003
 675.317;   63.36000; 5.5124e-003
 679.712;   63.80000; 5.5452e-003
 684.101;   64.24000; 5.5749e-003
 688.482;   64.68000; 5.6052e-003
 692.86;   65.12000; 5.6292e-003
 697.243;   65.56000; 5.6529e-003
 701.625;   66.00000; 5.6730e-003
 706.018;   66.44000; 5.6889e-003
 710.401;   66.88000; 5.7030e-003
 714.78;   67.32000; 5.7080e-003
 719.172;   67.76000; 5.7182e-003
 723.559;   68.20000; 5.7214e-003
 727.938;   68.64000; 5.7210e-003
 732.334;   69.08000; 5.7143e-003
 736.718;   69.52000; 5.7055e-003
 741.101;   69.96000; 5.6932e-003
 745.501;   70.40000; 5.6755e-003
 749.878;   70.84000; 5.6458e-003
 754.262;   71.28000; 5.6197e-003
 758.65;   71.72000; 5.5833e-003
 763.035;   72.16000; 5.5367e-003
 767.419;   72.60000; 5.4922e-003
 771.803;   73.04000; 5.4326e-003
 776.195;   73.48000; 5.3584e-003
 780.578;   73.92000; 5.2832e-003
 784.972;   74.36000; 5.2002e-003
 789.356;   74.80000; 5.1021e-003
 793.76;   75.24000; 4.9968e-003
 798.138;   75.68000; 4.8715e-003
 802.531;   76.12000; 4.7415e-003
 806.924;   76.56000; 4.5943e-003
 811.311;   77.00000; 4.4311e-003
 815.701;   77.44000; 4.2348e-003
 820.095;   77.88000; 4.0424e-003
 824.501;   78.32000; 3.8280e-003
 828.887;   78.76000; 3.5982e-003
 833.277;   79.20000; 3.3485e-003
 837.673;   79.64000; 3.0780e-003
 842.06;   80.08000; 2.7846e-003
 846.44;   80.52000; 2.4756e-003
 850.83;   80.96000; 2.1458e-003
 855.219;   81.40000; 1.8001e-003
 859.613;   81.84000; 1.4319e-003
 864.003;   82.28000; 1.0346e-003
 868.387;   82.72000; 6.2112e-004
 872.776;   83.16000; 1.7408e-004
 877.164;   83.60000;-2.8672e-004
 881.55;   84.04000;-7.7684e-004
 885.946;   84.48000;-1.2888e-003
 890.341;   84.92000;-1.8157e-003
 894.717;   85.36000;-2.3598e-003
 899.105;   85.80000;-2.9191e-003
 903.502;   86.24000;-3.4908e-003
 907.889;   86.68000;-4.0833e-003
 912.292;   87.12000;-4.6886e-003
 916.678;   87.56000;-5.3189e-003
 921.07;   88.00000;-5.9672e-003
 925.45;   88.44000;-6.6289e-003
 929.836;   88.88000;-7.2899e-003
 934.226;   89.32000;-7.9629e-003
 938.61;   89.76000;-8.6511e-003
 942.999;   90.20000;-9.3425e-003
 947.385;   90.64000;-1.0049e-002
 951.782;   91.08000;-1.0766e-002
 956.153;   91.52000;-1.1499e-002
 960.551;   91.96000;-1.2250e-002
 964.94;   92.40000;-1.3025e-002
 969.336;   92.84000;-1.3824e-002
 973.711;   93.28000;-1.4629e-002
 978.122;   93.72000;-1.5455e-002
 982.513;   94.16000;-1.6299e-002
 986.901;   94.60000;-1.7159e-002
 991.301;   95.04000;-1.8038e-002
 995.706;   95.48000;-1.8940e-002
1000.1;   95.92000;-1.9864e-002
1004.5;   96.36000;-2.0796e-002
1008.89;   96.80000;-2.1744e-002
1013.28;   97.24000;-2.2731e-002
1017.67;   97.68000;-2.3735e-002
1022.07;   98.12000;-2.4741e-002
1026.45;   98.56000;-2.5762e-002
1030.85;   99.00000;-2.6816e-002
1035.25;   99.44000;-2.7883e-002
1039.63;   99.88000;-2.8988e-002
1044.02;  100.32;-3.0114e-002
1048.41;  100.76;-3.1257e-002
1052.8;  101.2;-3.2441e-002
1057.2;  101.64;-3.3633e-002
1061.58;  102.08;-3.4874e-002
1065.97;  102.52;-3.6132e-002
1070.37;  102.96;-3.7402e-002
1074.76;  103.4;-3.8695e-002
1079.14;  103.84;-4.0006e-002
1083.55;  104.28;-4.1325e-002
1087.93;  104.72;-4.2670e-002
1092.35;  105.16;-4.4072e-002
1096.73;  105.6;-4.5464e-002
1101.13;  106.04;-4.6913e-002
1105.52;  106.48;-4.8374e-002
1109.92;  106.92;-4.9892e-002
1114.31;  107.36;-5.1390e-002
1118.71;  107.8;-5.2902e-002
1123.1;  108.24;-5.4454e-002
1127.49;  108.68;-5.5983e-002
1131.88;  109.12;-5.7487e-002
1136.28;  109.56;-5.9055e-002
1140.68;  110;-6.0611e-002
1145.07;  110.44;-6.2154e-002
1149.46;  110.88;-6.3674e-002
1153.85;  111.32;-6.5146e-002
1158.25;  111.76;-6.6573e-002
1162.64;  112.2;-6.8087e-002
1167.03;  112.64;-6.9487e-002
1171.43;  113.08;-7.0867e-002
1175.82;  113.52;-7.2249e-002
1180.22;  113.96;-7.3545e-002
1184.62;  114.4;-7.4799e-002
1188.99;  114.84;-7.6023e-002
1193.4;  115.28;-7.7188e-002
1197.81;  115.72;-7.8316e-002
1202.2;  116.16;-7.9405e-002
1206.59;  116.6;-8.0419e-002
1210.98;  117.04;-8.1396e-002
1215.39;  117.48;-8.2315e-002
1219.78;  117.92;-8.3227e-002
1224.18;  118.36;-8.4081e-002
1228.58;  118.8;-8.4903e-002
1232.95;  119.24;-8.5691e-002
1237.36;  119.68;-8.6440e-002
1241.77;  120.12;-8.7164e-002
1246.16;  120.56;-8.7869e-002
1250.56;  121;-8.8554e-002
1254.95;  121.44;-8.9181e-002
1259.34;  121.88;-8.9809e-002
1263.74;  122.32;-9.0457e-002
1268.16;  122.76;-9.1066e-002
1272.54;  123.2;-9.1603e-002
1276.95;  123.64;-9.2180e-002
1281.36;  124.08;-9.2729e-002
1285.75;  124.52;-9.3252e-002
1290.15;  124.96;-9.3757e-002
1294.54;  125.4;-9.4341e-002
1298.94;  125.84;-9.4911e-002
1303.35;  126.28;-9.5499e-002
1307.73;  126.72;-9.6030e-002
1312.14;  127.16;-9.6700e-002
1316.54;  127.6;-9.7245e-002
1320.93;  128.04;-9.7792e-002
1325.35;  128.48;-9.8310e-002
1329.73;  128.92;-9.8763e-002
1334.14;  129.36;-9.9252e-002
1335.35;  129.48;-9.9437e-002