File: 000407_correction_saphire_1_1350_Air-static.txt
#FILE:                 ;000407_correction_saphire_1_1350_Air-static.cle
#FORMAT:               ;NETZSCH5
#IDENTITY:             ;000407
#DECIMAL:              ;POINT
#SEPARATOR:            ;SEMICOLON
#MTYPE:                ;DIL
#MSUBTYPE:             ;
#INSTRUMENT:           ;NETZSCH DIL 402 C
#PROJECT:              ;
#DATE/TIME:            ;02.07.2021 18:26:51
#CORR. FILE:           ;
#LABORATORY:           ;НМ
#OPERATOR:             ;Орлов Н.
#REMARK:               ;
#SAMPLE:               ;corr_1
#SAMPLE LENGTH /mm:    ;3.010
#MATERIAL:             ;стандартный образец
#MEASMODE:             ;Standard Expansion
#PURGE GAS 1:          ;
#FLOW RATE 1 /(ml/min):;0
#CORR. CODE:           ;000
#RANGE:                ;40.0/1.0(K/мин)/1350.0
#SEGMENT:              ;S1/1

##Temp./°C;Time/min;dL/Lo
  40.38600;0.0000e+000; 0.0000e+000
  42.75400;    4.37500;-6.1379e-005
  47.18700;    8.75000;-1.8123e-004
  52.50900;   13.12500;-2.6856e-004
  57.68400;   17.50000;-2.8185e-004
  62.35900;   21.87500;-2.3866e-004
  66.70100;   26.25000;-1.7458e-004
  70.93500;   30.62500;-1.1811e-004
  75.22500;   35.00000;-7.2882e-005
  79.62000;   39.37500;-3.1105e-005
  84.02000;   43.75000; 7.8488e-006
  88.42700;   48.12500; 4.9668e-005
  92.82500;   52.50000; 9.1487e-005
  97.20200;   56.87500; 1.3584e-004
 101.574;   61.25000; 1.7874e-004
 105.959;   65.62500; 2.2081e-004
 110.361;   70.00000; 2.6242e-004
 114.751;   74.37500; 3.0486e-004
 119.147;   78.75000; 3.4913e-004
 123.536;   83.12500; 3.9165e-004
 127.918;   87.50000; 4.3173e-004
 132.299;   91.87500; 4.7355e-004
 136.68;   96.25000; 5.1595e-004
 141.058;  100.625; 5.5557e-004
 145.442;  105; 5.9830e-004
 149.826;  109.375; 6.4136e-004
 154.204;  113.75; 6.8094e-004
 158.586;  118.125; 7.2172e-004
 162.967;  122.5; 7.6275e-004
 167.353;  126.875; 8.0590e-004
 171.744;  131.25; 8.4855e-004
 176.11;  135.625; 8.8816e-004
 180.501;  140; 9.3007e-004
 184.866;  144.375; 9.6981e-004
 189.25;  148.75; 1.0071e-003
 193.633;  153.125; 1.0464e-003
 198.012;  157.5; 1.0842e-003
 202.384;  161.875; 1.1229e-003
 206.773;  166.25; 1.1615e-003
 211.148;  170.625; 1.2007e-003
 215.516;  175; 1.2373e-003
 219.903;  179.375; 1.2747e-003
 224.28;  183.75; 1.3100e-003
 228.659;  188.125; 1.3465e-003
 233.041;  192.5; 1.3830e-003
 237.418;  196.875; 1.4173e-003
 241.793;  201.25; 1.4532e-003
 246.17;  205.625; 1.4880e-003
 250.548;  210; 1.5229e-003
 254.922;  214.375; 1.5567e-003
 259.295;  218.75; 1.5917e-003
 263.671;  223.125; 1.6255e-003
 268.053;  227.5; 1.6596e-003
 272.427;  231.875; 1.6925e-003
 276.803;  236.25; 1.7284e-003
 281.185;  240.625; 1.7587e-003
 285.555;  245; 1.7881e-003
 289.931;  249.375; 1.8203e-003
 294.314;  253.75; 1.8520e-003
 298.694;  258.125; 1.8831e-003
 303.079;  262.5; 1.9135e-003
 307.444;  266.875; 1.9450e-003
 311.821;  271.25; 1.9784e-003
 316.201;  275.625; 2.0075e-003
 320.566;  280; 2.0368e-003
 324.952;  284.375; 2.0660e-003
 329.325;  288.75; 2.0988e-003
 333.709;  293.125; 2.1307e-003
 338.075;  297.5; 2.1658e-003
 342.453;  301.875; 2.1945e-003
 346.83;  306.25; 2.2244e-003
 351.209;  310.625; 2.2525e-003
 355.578;  315; 2.2804e-003
 359.964;  319.375; 2.3111e-003
 364.332;  323.75; 2.3402e-003
 368.708;  328.125; 2.3674e-003
 373.089;  332.5; 2.3955e-003
 377.462;  336.875; 2.4249e-003
 381.841;  341.25; 2.4527e-003
 386.21;  345.625; 2.4816e-003
 390.593;  350; 2.5106e-003
 394.955;  354.375; 2.5393e-003
 399.342;  358.75; 2.5668e-003
 403.718;  363.125; 2.5978e-003
 408.094;  367.5; 2.6258e-003
 412.461;  371.875; 2.6542e-003
 416.842;  376.25; 2.6827e-003
 421.215;  380.625; 2.7091e-003
 425.591;  385; 2.7382e-003
 429.967;  389.375; 2.7669e-003
 434.341;  393.75; 2.7939e-003
 438.72;  398.125; 2.8247e-003
 443.091;  402.5; 2.8519e-003
 447.464;  406.875; 2.8820e-003
 451.845;  411.25; 2.9101e-003
 456.218;  415.625; 2.9392e-003
 460.589;  420; 2.9689e-003
 464.969;  424.375; 2.9964e-003
 469.343;  428.75; 3.0234e-003
 473.714;  433.125; 3.0542e-003
 478.089;  437.5; 3.0837e-003
 482.465;  441.875; 3.1105e-003
 486.843;  446.25; 3.1400e-003
 491.213;  450.625; 3.1679e-003
 495.583;  455; 3.1965e-003
 499.961;  459.375; 3.2260e-003
 504.336;  463.75; 3.2536e-003
 508.71;  468.125; 3.2828e-003
 513.091;  472.5; 3.3137e-003
 517.469;  476.875; 3.3415e-003
 521.839;  481.25; 3.3708e-003
 526.22;  485.625; 3.4012e-003
 530.585;  490; 3.4310e-003
 534.967;  494.375; 3.4598e-003
 539.341;  498.75; 3.4909e-003
 543.716;  503.125; 3.5192e-003
 548.088;  507.5; 3.5514e-003
 552.466;  511.875; 3.5811e-003
 556.841;  516.25; 3.6105e-003
 561.217;  520.625; 3.6422e-003
 565.593;  525; 3.6714e-003
 569.965;  529.375; 3.6999e-003
 574.343;  533.75; 3.7316e-003
 578.718;  538.125; 3.7615e-003
 583.089;  542.5; 3.7919e-003
 587.465;  546.875; 3.8234e-003
 591.841;  551.25; 3.8546e-003
 596.213;  555.625; 3.8851e-003
 600.591;  560; 3.9181e-003
 604.965;  564.375; 3.9485e-003
 609.334;  568.75; 3.9845e-003
 613.704;  573.125; 4.0171e-003
 618.079;  577.5; 4.0498e-003
 622.459;  581.875; 4.0818e-003
 626.842;  586.25; 4.1140e-003
 631.206;  590.625; 4.1486e-003
 635.589;  595; 4.1807e-003
 639.956;  599.375; 4.2138e-003
 644.336;  603.75; 4.2501e-003
 648.699;  608.125; 4.2805e-003
 653.078;  612.5; 4.3177e-003
 657.455;  616.875; 4.3515e-003
 661.83;  621.25; 4.3881e-003
 666.203;  625.625; 4.4212e-003
 670.578;  630; 4.4544e-003
 674.956;  634.375; 4.4917e-003
 679.327;  638.75; 4.5246e-003
 683.708;  643.125; 4.5623e-003
 688.075;  647.5; 4.5972e-003
 692.447;  651.875; 4.6319e-003
 696.825;  656.25; 4.6687e-003
 701.197;  660.625; 4.7052e-003
 705.572;  665; 4.7422e-003
 709.945;  669.375; 4.7745e-003
 714.328;  673.75; 4.8119e-003
 718.703;  678.125; 4.8540e-003
 723.062;  682.5; 4.8920e-003
 727.444;  686.875; 4.9286e-003
 731.829;  691.25; 4.9659e-003
 736.193;  695.625; 5.0028e-003
 740.569;  700; 5.0418e-003
 744.942;  704.375; 5.0794e-003
 749.318;  708.75; 5.1170e-003
 753.687;  713.125; 5.1581e-003
 758.061;  717.5; 5.1980e-003
 762.438;  721.875; 5.2374e-003
 766.814;  726.25; 5.2807e-003
 771.18;  730.625; 5.3183e-003
 775.558;  735; 5.3606e-003
 779.931;  739.375; 5.3976e-003
 784.31;  743.75; 5.4389e-003
 788.682;  748.125; 5.4816e-003
 793.052;  752.5; 5.5208e-003
 797.437;  756.875; 5.5650e-003
 801.81;  761.25; 5.6050e-003
 806.181;  765.625; 5.6481e-003
 810.554;  770; 5.6894e-003
 814.928;  774.375; 5.7311e-003
 819.312;  778.75; 5.7727e-003
 823.679;  783.125; 5.8114e-003
 828.052;  787.5; 5.8524e-003
 832.43;  791.875; 5.8961e-003
 836.802;  796.25; 5.9387e-003
 841.171;  800.625; 5.9788e-003
 845.558;  805; 6.0216e-003
 849.933;  809.375; 6.0637e-003
 854.304;  813.75; 6.0987e-003
 858.673;  818.125; 6.1473e-003
 863.047;  822.5; 6.1890e-003
 867.421;  826.875; 6.2333e-003
 871.801;  831.25; 6.2765e-003
 876.165;  835.625; 6.3204e-003
 880.547;  840; 6.3642e-003
 884.926;  844.375; 6.4110e-003
 889.3;  848.75; 6.4531e-003
 893.665;  853.125; 6.5008e-003
 898.049;  857.5; 6.5494e-003
 902.412;  861.875; 6.5956e-003
 906.795;  866.25; 6.6375e-003
 911.174;  870.625; 6.6805e-003
 915.554;  875; 6.7255e-003
 919.912;  879.375; 6.7743e-003
 924.287;  883.75; 6.8172e-003
 928.663;  888.125; 6.8647e-003
 933.041;  892.5; 6.9133e-003
 937.41;  896.875; 6.9598e-003
 941.783;  901.25; 7.0106e-003
 946.159;  905.625; 7.0547e-003
 950.537;  910; 7.1009e-003
 954.908;  914.375; 7.1516e-003
 959.288;  918.75; 7.1918e-003
 963.658;  923.125; 7.2443e-003
 968.03;  927.5; 7.2912e-003
 972.408;  931.875; 7.3378e-003
 976.789;  936.25; 7.3841e-003
 981.168;  940.625; 7.4318e-003
 985.527;  945; 7.4773e-003
 989.91;  949.375; 7.5226e-003
 994.288;  953.75; 7.5729e-003
 998.659;  958.125; 7.6232e-003
1003.03;  962.5; 7.6737e-003
1007.41;  966.875; 7.7164e-003
1011.78;  971.25; 7.7637e-003
1016.16;  975.625; 7.8138e-003
1020.54;  980; 7.8642e-003
1024.9;  984.375; 7.9110e-003
1029.28;  988.75; 7.9547e-003
1033.65;  993.125; 8.0015e-003
1038.05;  997.5; 8.0535e-003
1042.4; 1001.88; 8.1032e-003
1046.78; 1006.25; 8.1494e-003
1051.16; 1010.62; 8.1946e-003
1055.52; 1015; 8.2486e-003
1059.9; 1019.38; 8.2906e-003
1064.29; 1023.75; 8.3455e-003
1068.67; 1028.12; 8.3930e-003
1073.02; 1032.5; 8.4403e-003
1077.41; 1036.88; 8.4900e-003
1081.77; 1041.25; 8.5405e-003
1086.15; 1045.62; 8.5865e-003
1090.52; 1050; 8.6336e-003
1094.9; 1054.38; 8.6857e-003
1099.27; 1058.75; 8.7352e-003
1103.65; 1063.12; 8.7836e-003
1108.03; 1067.5; 8.8311e-003
1112.4; 1071.88; 8.8777e-003
1116.78; 1076.25; 8.9256e-003
1121.15; 1080.62; 8.9804e-003
1125.53; 1085; 9.0228e-003
1129.89; 1089.38; 9.0739e-003
1134.29; 1093.75; 9.1211e-003
1138.66; 1098.12; 9.1748e-003
1143.03; 1102.5; 9.2225e-003
1147.39; 1106.88; 9.2689e-003
1151.77; 1111.25; 9.3189e-003
1156.14; 1115.62; 9.3707e-003
1160.52; 1120; 9.4162e-003
1164.9; 1124.38; 9.4627e-003
1169.27; 1128.75; 9.5093e-003
1173.65; 1133.12; 9.5623e-003
1178.02; 1137.5; 9.6112e-003
1182.42; 1141.88; 9.6684e-003
1186.77; 1146.25; 9.7288e-003
1191.15; 1150.62; 9.7765e-003
1195.53; 1155; 9.8091e-003
1199.88; 1159.38; 9.8472e-003
1204.26; 1163.75; 9.8767e-003
1208.66; 1168.12; 9.9066e-003
1213.02; 1172.5; 9.9416e-003
1217.39; 1176.88; 9.9767e-003
1221.78; 1181.25; 1.0010e-002
1226.13; 1185.62; 1.0041e-002
1230.52; 1190; 1.0075e-002
1234.88; 1194.38; 1.0093e-002
1239.28; 1198.75; 1.0123e-002
1243.63; 1203.12; 1.0161e-002
1248.03; 1207.5; 1.0197e-002
1252.4; 1211.88; 1.0227e-002
1256.78; 1216.25; 1.0253e-002
1261.15; 1220.62; 1.0277e-002
1265.54; 1225; 1.0299e-002
1269.89; 1229.38; 1.0327e-002
1274.28; 1233.75; 1.0345e-002
1278.65; 1238.12; 1.0362e-002
1283.01; 1242.5; 1.0376e-002
1287.4; 1246.88; 1.0401e-002
1291.78; 1251.25; 1.0409e-002
1296.15; 1255.62; 1.0427e-002
1300.53; 1260; 1.0445e-002
1304.91; 1264.38; 1.0447e-002
1309.3; 1268.75; 1.0458e-002
1313.64; 1273.12; 1.0461e-002
1318.02; 1277.5; 1.0453e-002
1322.38; 1281.88; 1.0444e-002
1326.77; 1286.25; 1.0424e-002
1331.17; 1290.62; 1.0393e-002
1335.54; 1295; 1.0367e-002
1339.87; 1299.38; 1.0326e-002
1344.29; 1303.75; 1.0274e-002
1348.66; 1308.12; 1.0215e-002
1350.53; 1309.98; 1.0174e-002