File: K06_5_corrected.txt
#FILE:                 ;000397_K06_5_1350_Air-static.sle
#FORMAT:               ;NETZSCH5
#IDENTITY:             ;000397
#DECIMAL:              ;POINT
#SEPARATOR:            ;SEMICOLON
#MTYPE:                ;DIL
#MSUBTYPE:             ;
#INSTRUMENT:           ;NETZSCH DIL 402 C
#PROJECT:              ;
#DATE/TIME:            ;24.06.2021 13:17:17
#CORR. FILE:           ;
#LABORATORY:           ;ЌЊ
#OPERATOR:             ;Ћа«®ў Ќ.
#REMARK:               ;
#SAMPLE:               ;corr_5
#SAMPLE LENGTH /mm:    ;2.400
#MATERIAL:             ;бв ­¤ ав­л© ®Ўа §Ґж
#MEASMODE:             ;Standard Expansion
#PURGE GAS 1:          ;
#FLOW RATE 1 /(ml/min):;0
#CORR. CODE:           ;000
#RANGE:                ;40.0/5.0(K/¬Ё­)/1350.0
#SEGMENT:              ;S1/1

##Temp./шC;Time/min;dL/Lo
800.044	151.85	3.43E-01
801.479	152.14	3.35E-01
802.93	152.43	3.28E-01
804.376	152.72	3.20E-01
805.834	153.01	3.13E-01
807.273	153.3	3.05E-01
808.723	153.59	2.97E-01
810.184	153.88	2.89E-01
811.627	154.17	2.80E-01
813.083	154.46	2.70E-01
814.517	154.75	2.63E-01
815.977	155.04	2.53E-01
817.421	155.33	2.44E-01
818.867	155.62	2.34E-01
820.319	155.91	2.24E-01
821.774	156.2	2.14E-01
823.22	156.49	2.03E-01
824.673	156.78	1.92E-01
826.118	157.07	1.81E-01
827.566	157.36	1.69E-01
829.018	157.65	1.58E-01
830.454	157.94	1.46E-01
831.917	158.23	1.35E-01
833.369	158.52	1.23E-01
834.809	158.81	1.10E-01
836.258	159.1	9.86E-02
837.717	159.39	8.63E-02
839.16	159.68	7.30E-02
840.61	159.97	5.99E-02
842.057	160.26	4.67E-02
843.496	160.55	3.29E-02
844.95	160.84	1.90E-02
846.397	161.13	4.89E-03
847.856	161.42	-9.24E-03
849.29	161.71	-2.33E-02
850.747	162	-3.88E-02
852.187	162.29	-5.37E-02
853.633	162.58	-6.88E-02
855.088	162.87	-8.48E-02
856.53	163.16	-1.01E-01
857.981	163.45	-1.17E-01
859.431	163.74	-1.33E-01
860.877	164.03	-1.49E-01
862.331	164.32	-1.67E-01
863.758	164.61	-1.84E-01
865.217	164.9	-1.99E-01
866.67	165.19	-2.15E-01
868.115	165.48	-2.31E-01
869.574	165.77	-2.49E-01
871.014	166.06	-2.66E-01
872.466	166.35	-2.83E-01
873.906	166.64	-3.01E-01
875.352	166.93	-3.20E-01
876.814	167.22	-3.38E-01
878.261	167.51	-3.57E-01
879.706	167.8	-3.76E-01
881.147	168.09	-3.96E-01
882.608	168.38	-4.15E-01
884.046	168.67	-4.34E-01
885.491	168.96	-4.55E-01
886.952	169.25	-4.76E-01
888.391	169.54	-4.96E-01
889.841	169.83	-5.17E-01
891.284	170.12	-5.38E-01
892.742	170.41	-5.60E-01
894.194	170.7	-5.82E-01
895.639	170.99	-6.04E-01
897.09	171.28	-6.26E-01
898.549	171.57	-6.48E-01
899.992	171.86	-6.72E-01
901.435	172.15	-6.95E-01
902.883	172.44	-7.18E-01
904.338	172.73	-7.41E-01
905.785	173.02	-7.66E-01
907.233	173.31	-7.90E-01
908.695	173.6	-8.15E-01
910.13	173.89	-8.40E-01
911.571	174.18	-8.65E-01
913.025	174.47	-8.90E-01
914.471	174.76	-9.15E-01
915.926	175.05	-9.41E-01
917.38	175.34	-9.68E-01
918.823	175.63	-9.94E-01
920.27	175.92	-1.02E+00
921.735	176.21	-1.05E+00
923.172	176.5	-1.07E+00
924.624	176.79	-1.10E+00
926.085	177.08	-1.13E+00
927.522	177.37	-1.16E+00
928.973	177.66	-1.19E+00
930.412	177.95	-1.21E+00
931.862	178.24	-1.24E+00
933.308	178.53	-1.27E+00
934.77	178.82	-1.30E+00
936.2	179.11	-1.33E+00
937.649	179.4	-1.36E+00
939.104	179.69	-1.39E+00
940.552	179.98	-1.42E+00
941.999	180.27	-1.45E+00
943.44	180.56	-1.48E+00
944.882	180.85	-1.51E+00
946.346	181.14	-1.54E+00
947.788	181.43	-1.57E+00
949.241	181.72	-1.60E+00
950.69	182.01	-1.63E+00
952.144	182.3	-1.67E+00
953.582	182.59	-1.70E+00
955.029	182.88	-1.73E+00
956.472	183.17	-1.76E+00
957.921	183.46	-1.79E+00
959.379	183.75	-1.83E+00
960.824	184.04	-1.86E+00
962.267	184.33	-1.89E+00
963.727	184.62	-1.93E+00
965.167	184.91	-1.96E+00
966.617	185.2	-1.99E+00
968.062	185.49	-2.03E+00
969.511	185.78	-2.06E+00
970.96	186.07	-2.10E+00
972.408	186.36	-2.13E+00
973.856	186.65	-2.17E+00
975.316	186.94	-2.20E+00
976.76	187.23	-2.24E+00
978.209	187.52	-2.28E+00
979.652	187.81	-2.32E+00
981.102	188.1	-2.36E+00
982.555	188.39	-2.40E+00
984.018	188.68	-2.44E+00
985.455	188.97	-2.47E+00
986.897	189.26	-2.51E+00
988.355	189.55	-2.56E+00
989.802	189.84	-2.60E+00
991.26	190.13	-2.64E+00
992.703	190.42	-2.68E+00
994.16	190.71	-2.72E+00
995.617	191	-2.76E+00
997.052	191.29	-2.80E+00
998.506	191.58	-2.85E+00
999.964	191.87	-2.89E+00
1001.41	192.16	-2.93E+00
1002.854	192.45	-2.97E+00
1004.3	192.74	-3.02E+00
1005.74	193.03	-3.06E+00
1007.21	193.32	-3.10E+00
1008.65	193.61	-3.15E+00
1010.09	193.9	-3.20E+00
1011.54	194.19	-3.24E+00
1013.01	194.48	-3.29E+00
1014.45	194.77	-3.33E+00
1015.91	195.06	-3.38E+00
1017.35	195.35	-3.43E+00
1018.79	195.64	-3.48E+00
1020.245	195.93	-3.52E+00
1021.7	196.22	-3.57E+00
1023.15	196.51	-3.62E+00
1024.6	196.8	-3.67E+00
1026.047	197.09	-3.72E+00
1027.49	197.38	-3.77E+00
1028.94	197.67	-3.82E+00
1030.38	197.96	-3.87E+00
1031.85	198.25	-3.92E+00
1033.3	198.54	-3.97E+00
1034.74	198.83	-4.02E+00
1036.18	199.12	-4.07E+00
1037.63	199.41	-4.12E+00
1039.09	199.7	-4.17E+00
1040.54	199.99	-4.22E+00
1041.98	200.28	-4.27E+00
1043.427	200.57	-4.32E+00
1044.87	200.86	-4.37E+00
1046.33	201.15	-4.43E+00
1047.78	201.44	-4.48E+00
1049.23	201.73	-4.53E+00
1050.67	202.02	-4.58E+00
1052.11	202.31	-4.64E+00
1053.57	202.6	-4.69E+00
1055.02	202.89	-4.74E+00
1056.47	203.18	-4.79E+00
1057.92	203.47	-4.84E+00
1059.36	203.76	-4.90E+00
1060.82	204.05	-4.95E+00
1062.26	204.34	-5.00E+00
1063.71	204.63	-5.06E+00
1065.16	204.92	-5.11E+00
1066.61	205.21	-5.16E+00
1068.06	205.5	-5.21E+00
1069.5	205.79	-5.26E+00
1070.96	206.08	-5.32E+00
1072.41	206.37	-5.37E+00
1073.854	206.66	-5.42E+00
1075.3	206.95	-5.48E+00
1076.755	207.24	-5.53E+00
1078.203	207.53	-5.58E+00
1079.65	207.82	-5.64E+00
1081.104	208.11	-5.69E+00
1082.56	208.4	-5.74E+00
1084	208.69	-5.80E+00
1085.45	208.98	-5.85E+00
1086.9	209.27	-5.90E+00
1088.35	209.56	-5.96E+00
1089.79	209.85	-6.01E+00
1091.24	210.14	-6.07E+00
1092.71	210.43	-6.12E+00
1094.16	210.72	-6.17E+00
1095.6	211.01	-6.23E+00
1097.04	211.3	-6.29E+00
1098.49	211.59	-6.34E+00
1099.95	211.88	-6.39E+00
1101.39	212.17	-6.45E+00
1102.84	212.46	-6.50E+00
1104.29	212.75	-6.56E+00
1105.75	213.04	-6.61E+00
1107.18	213.33	-6.67E+00
1108.64	213.62	-6.72E+00
1110.08	213.91	-6.77E+00
1111.53	214.2	-6.83E+00
1112.99	214.49	-6.88E+00
1114.44	214.78	-6.94E+00
1115.88	215.07	-6.99E+00
1117.33	215.36	-7.04E+00
1118.79	215.65	-7.10E+00
1120.24	215.94	-7.15E+00
1121.69	216.23	-7.20E+00
1123.13	216.52	-7.26E+00
1124.57	216.81	-7.31E+00
1126.02	217.1	-7.36E+00
1127.48	217.39	-7.41E+00
1128.93	217.68	-7.47E+00
1130.37	217.97	-7.52E+00
1131.823	218.26	-7.57E+00
1133.27	218.55	-7.62E+00
1134.729	218.84	-7.68E+00
1136.17	219.13	-7.73E+00
1137.63	219.42	-7.78E+00
1139.08	219.71	-7.83E+00
1140.52	220	-7.88E+00
1141.97	220.29	-7.93E+00
1143.43	220.58	-7.98E+00
1144.87	220.87	-8.03E+00
1146.32	221.16	-8.08E+00
1147.76	221.45	-8.12E+00
1149.22	221.74	-8.17E+00
1150.67	222.03	-8.22E+00
1152.11	222.32	-8.27E+00
1153.56	222.61	-8.31E+00
1155.021	222.9	-8.36E+00
1156.46	223.19	-8.40E+00
1157.92	223.48	-8.44E+00
1159.37	223.77	-8.49E+00
1160.81	224.06	-8.53E+00
1162.26	224.35	-8.57E+00
1163.69	224.64	-8.62E+00
1165.14	224.93	-8.65E+00
1166.6	225.22	-8.69E+00
1168.052	225.51	-8.74E+00
1169.5	225.8	-8.77E+00
1170.94	226.09	-8.81E+00
1172.38	226.38	-8.85E+00
1173.85	226.67	-8.89E+00
1175.297	226.96	-8.93E+00
1176.75	227.25	-8.96E+00
1178.19	227.54	-8.99E+00
1179.646	227.83	-9.03E+00
1181.11	228.12	-9.06E+00
1182.55	228.41	-9.09E+00
1183.99	228.7	-9.13E+00
1185.44	228.99	-9.16E+00
1186.9	229.28	-9.19E+00
1188.37	229.57	-9.22E+00
1189.81	229.86	-9.25E+00
1191.27	230.15	-9.28E+00
1192.71	230.44	-9.31E+00
1194.15	230.73	-9.34E+00
1195.61	231.02	-9.37E+00
1197.06	231.31	-9.39E+00
1198.51	231.6	-9.42E+00
1199.96	231.89	-9.45E+00
1201.401	232.18	-9.48E+00
1202.85	232.47	-9.50E+00
1204.31	232.76	-9.52E+00
1205.75	233.05	-9.55E+00
1207.2	233.34	-9.57E+00
1208.66	233.63	-9.59E+00
1210.1	233.92	-9.62E+00
1211.56	234.21	-9.64E+00
1213	234.5	-9.66E+00
1214.46	234.79	-9.68E+00
1215.88	235.08	-9.71E+00
1217.34	235.37	-9.72E+00
1218.79	235.66	-9.75E+00
1220.25	235.95	-9.76E+00
1221.7	236.24	-9.79E+00
1223.14	236.53	-9.81E+00
1224.59	236.82	-9.83E+00
1226.04	237.11	-9.84E+00
1227.5	237.4	-9.86E+00
1228.95	237.69	-9.87E+00
1230	237.9	-9.88E+00