File: K06_10_corrected.txt
#FILE:                 ;000402_K06_10_1335_Air-static.sle
#FORMAT:               ;NETZSCH5
#IDENTITY:             ;000402
#DECIMAL:              ;POINT
#SEPARATOR:            ;SEMICOLON
#MTYPE:                ;DIL
#MSUBTYPE:             ;
#INSTRUMENT:           ;NETZSCH DIL 402 C
#PROJECT:              ;
#DATE/TIME:            ;28.06.2021 11:45:13
#CORR. FILE:           ;
#LABORATORY:           ;ЌЊ
#OPERATOR:             ;Ћа«®ў Ќ.
#REMARK:               ;
#SAMPLE:               ;K06_10
#SAMPLE LENGTH /mm:    ;3.540
#MATERIAL:             ;бв ­¤ ав­л© ®Ўа §Ґж
#MEASMODE:             ;Standard Expansion
#PURGE GAS 1:          ;
#FLOW RATE 1 /(ml/min):;0
#CORR. CODE:           ;000
#RANGE:                ;40.0/10.0(K/¬Ё­)/1335.0
#SEGMENT:              ;S1/1

##Temp./шC;Time/min;dL/Lo
800.046	75.87	2.06E-01
801.541	76.02	2.00E-01
803.033	76.17	1.94E-01
804.527	76.32	1.87E-01
806.017	76.47	1.81E-01
807.524	76.62	1.74E-01
809.02	76.77	1.68E-01
810.521	76.92	1.61E-01
812.008	77.07	1.53E-01
813.502	77.22	1.46E-01
815.016	77.37	1.37E-01
816.508	77.52	1.29E-01
817.991	77.67	1.21E-01
819.498	77.82	1.13E-01
820.993	77.97	1.05E-01
822.5	78.12	9.59E-02
823.991	78.27	8.72E-02
825.494	78.42	7.83E-02
826.997	78.57	6.93E-02
828.493	78.72	5.99E-02
829.987	78.87	5.05E-02
831.479	79.02	4.04E-02
832.985	79.17	3.04E-02
834.473	79.32	1.99E-02
835.982	79.47	9.20E-03
837.466	79.62	-1.27E-03
838.962	79.77	-1.20E-02
840.466	79.92	-2.33E-02
841.965	80.07	-3.49E-02
843.463	80.22	-4.71E-02
844.952	80.37	-5.90E-02
846.44	80.52	-7.07E-02
847.947	80.67	-8.35E-02
849.441	80.82	-9.60E-02
850.945	80.97	-1.09E-01
852.44	81.12	-1.22E-01
853.926	81.27	-1.35E-01
855.427	81.42	-1.49E-01
856.907	81.57	-1.62E-01
858.42	81.72	-1.76E-01
859.908	81.87	-1.91E-01
861.414	82.02	-2.05E-01
862.909	82.17	-2.20E-01
864.397	82.32	-2.36E-01
865.898	82.47	-2.51E-01
867.392	82.62	-2.66E-01
868.89	82.77	-2.82E-01
870.386	82.92	-2.99E-01
871.878	83.07	-3.15E-01
873.381	83.22	-3.32E-01
874.865	83.37	-3.50E-01
876.372	83.52	-3.67E-01
877.863	83.67	-3.84E-01
879.361	83.82	-4.02E-01
880.864	83.97	-4.21E-01
882.355	84.12	-4.39E-01
883.855	84.27	-4.58E-01
885.347	84.42	-4.76E-01
886.836	84.57	-4.95E-01
888.34	84.72	-5.15E-01
889.83	84.87	-5.34E-01
891.341	85.02	-5.54E-01
892.829	85.17	-5.74E-01
894.318	85.32	-5.94E-01
895.824	85.47	-6.14E-01
897.318	85.62	-6.34E-01
898.805	85.77	-6.55E-01
900.307	85.92	-6.76E-01
901.805	86.07	-6.97E-01
903.312	86.22	-7.18E-01
904.799	86.37	-7.39E-01
906.298	86.52	-7.61E-01
907.801	86.67	-7.82E-01
909.289	86.82	-8.05E-01
910.792	86.97	-8.26E-01
912.292	87.12	-8.49E-01
913.789	87.27	-8.71E-01
915.289	87.42	-8.94E-01
916.775	87.57	-9.17E-01
918.271	87.72	-9.40E-01
919.774	87.87	-9.64E-01
921.262	88.02	-9.88E-01
922.76	88.17	-1.01E+00
924.251	88.32	-1.04E+00
925.748	88.47	-1.06E+00
927.248	88.62	-1.08E+00
928.742	88.77	-1.11E+00
930.253	88.92	-1.13E+00
931.736	89.07	-1.16E+00
933.222	89.22	-1.18E+00
934.727	89.37	-1.21E+00
936.223	89.52	-1.23E+00
937.723	89.67	-1.25E+00
939.217	89.82	-1.28E+00
940.706	89.97	-1.30E+00
942.209	90.12	-1.33E+00
943.698	90.27	-1.35E+00
945.191	90.42	-1.38E+00
946.689	90.57	-1.41E+00
948.176	90.72	-1.43E+00
949.685	90.87	-1.46E+00
951.176	91.02	-1.48E+00
952.666	91.17	-1.51E+00
954.177	91.32	-1.54E+00
955.658	91.47	-1.56E+00
957.159	91.62	-1.59E+00
958.662	91.77	-1.62E+00
960.155	91.92	-1.64E+00
961.653	92.07	-1.67E+00
963.146	92.22	-1.70E+00
964.639	92.37	-1.73E+00
966.143	92.52	-1.75E+00
967.638	92.67	-1.78E+00
969.134	92.82	-1.81E+00
970.632	92.97	-1.84E+00
972.114	93.12	-1.87E+00
973.614	93.27	-1.90E+00
975.117	93.42	-1.93E+00
976.616	93.57	-1.96E+00
978.122	93.72	-1.99E+00
979.614	93.87	-2.02E+00
981.104	94.02	-2.05E+00
982.608	94.17	-2.08E+00
984.102	94.32	-2.11E+00
985.616	94.47	-2.14E+00
987.108	94.62	-2.17E+00
988.595	94.77	-2.20E+00
990.101	94.92	-2.23E+00
991.595	95.07	-2.26E+00
993.102	95.22	-2.30E+00
994.608	95.37	-2.33E+00
996.097	95.52	-2.36E+00
997.607	95.67	-2.39E+00
999.094	95.82	-2.43E+00
1000.59	95.97	-2.46E+00
1002.11	96.12	-2.49E+00
1003.6	96.27	-2.53E+00
1005.09	96.42	-2.56E+00
1006.59	96.57	-2.59E+00
1008.08	96.72	-2.63E+00
1009.6	96.87	-2.66E+00
1011.08	97.02	-2.70E+00
1012.6	97.17	-2.73E+00
1014.08	97.32	-2.77E+00
1015.58	97.47	-2.80E+00
1017.07	97.62	-2.84E+00
1018.57	97.77	-2.87E+00
1020.073	97.92	-2.91E+00
1021.57	98.07	-2.95E+00
1023.065	98.22	-2.98E+00
1024.57	98.37	-3.02E+00
1026.06	98.52	-3.05E+00
1027.55	98.67	-3.09E+00
1029.07	98.82	-3.13E+00
1030.56	98.97	-3.17E+00
1032.05	99.12	-3.20E+00
1033.54	99.27	-3.24E+00
1035.04	99.42	-3.28E+00
1036.54	99.57	-3.32E+00
1038.04	99.72	-3.36E+00
1039.53	99.87	-3.39E+00
1041.02	100.02	-3.43E+00
1042.52	100.17	-3.47E+00
1044.02	100.32	-3.52E+00
1045.52	100.47	-3.55E+00
1047.02	100.62	-3.59E+00
1048.51	100.77	-3.64E+00
1050	100.92	-3.68E+00
1051.51	101.07	-3.72E+00
1052.99	101.22	-3.76E+00
1054.49	101.37	-3.80E+00
1056.01	101.52	-3.85E+00
1057.51	101.67	-3.89E+00
1059	101.82	-3.93E+00
1060.49	101.97	-3.98E+00
1061.98	102.12	-4.02E+00
1063.48	102.27	-4.06E+00
1064.97	102.42	-4.11E+00
1066.47	102.57	-4.15E+00
1067.97	102.72	-4.20E+00
1069.47	102.87	-4.24E+00
1070.953	103.02	-4.29E+00
1072.46	103.17	-4.33E+00
1073.95	103.32	-4.38E+00
1075.46	103.47	-4.42E+00
1076.96	103.62	-4.47E+00
1078.448	103.77	-4.51E+00
1079.94	103.92	-4.56E+00
1081.45	104.07	-4.61E+00
1082.94	104.22	-4.66E+00
1084.46	104.37	-4.70E+00
1085.948	104.52	-4.75E+00
1087.44	104.67	-4.80E+00
1088.95	104.82	-4.84E+00
1090.44	104.97	-4.89E+00
1091.927	105.12	-4.94E+00
1093.44	105.27	-4.99E+00
1094.93	105.42	-5.04E+00
1096.44	105.57	-5.09E+00
1097.93	105.72	-5.14E+00
1099.43	105.87	-5.19E+00
1100.93	106.02	-5.24E+00
1102.43	106.17	-5.29E+00
1103.93	106.32	-5.34E+00
1105.42	106.47	-5.40E+00
1106.93	106.62	-5.45E+00
1108.42	106.77	-5.50E+00
1109.92	106.92	-5.55E+00
1111.41	107.07	-5.61E+00
1112.91	107.22	-5.66E+00
1114.4	107.37	-5.71E+00
1115.9	107.52	-5.77E+00
1117.4	107.67	-5.82E+00
1118.91	107.82	-5.87E+00
1120.4	107.97	-5.92E+00
1121.89	108.12	-5.98E+00
1123.4	108.27	-6.03E+00
1124.9	108.42	-6.09E+00
1126.4	108.57	-6.14E+00
1127.9	108.72	-6.19E+00
1129.39	108.87	-6.25E+00
1130.88	109.02	-6.30E+00
1132.38	109.17	-6.35E+00
1133.88	109.32	-6.40E+00
1135.39	109.47	-6.46E+00
1136.89	109.62	-6.51E+00
1138.38	109.77	-6.57E+00
1139.87	109.92	-6.62E+00
1141.38	110.07	-6.68E+00
1142.87	110.22	-6.73E+00
1144.36	110.37	-6.79E+00
1145.86	110.52	-6.84E+00
1147.36	110.67	-6.89E+00
1148.86	110.82	-6.94E+00
1150.36	110.97	-6.99E+00
1151.85	111.12	-7.05E+00
1153.34	111.27	-7.10E+00
1154.85	111.42	-7.15E+00
1156.35	111.57	-7.20E+00
1157.85	111.72	-7.25E+00
1159.34	111.87	-7.31E+00
1160.85	112.02	-7.35E+00
1162.34	112.17	-7.41E+00
1163.83	112.32	-7.46E+00
1165.33	112.47	-7.50E+00
1166.83	112.62	-7.56E+00
1168.33	112.77	-7.60E+00
1169.83	112.92	-7.65E+00
1171.32	113.07	-7.70E+00
1172.83	113.22	-7.75E+00
1174.32	113.37	-7.80E+00
1175.82	113.52	-7.85E+00
1177.33	113.67	-7.89E+00
1178.82	113.82	-7.94E+00
1180.32	113.97	-7.98E+00
1181.81	114.12	-8.03E+00
1183.31	114.27	-8.07E+00
1184.802	114.42	-8.11E+00
1186.31	114.57	-8.15E+00
1187.82	114.72	-8.20E+00
1189.3	114.87	-8.24E+00
1190.81	115.02	-8.28E+00
1192.31	115.17	-8.32E+00
1193.8	115.32	-8.36E+00
1195.3	115.47	-8.40E+00
1196.81	115.62	-8.44E+00
1198.3	115.77	-8.48E+00
1199.81	115.92	-8.52E+00
1201.302	116.07	-8.56E+00
1202.79	116.22	-8.59E+00
1204.3	116.37	-8.63E+00
1205.79	116.52	-8.66E+00
1207.29	116.67	-8.69E+00
1208.79	116.82	-8.74E+00
1210.29	116.97	-8.77E+00
1211.78	117.12	-8.80E+00
1213.27	117.27	-8.84E+00
1214.78	117.42	-8.86E+00
1216.28	117.57	-8.90E+00
1217.79	117.72	-8.93E+00
1219.29	117.87	-8.96E+00
1220.79	118.02	-8.99E+00
1222.28	118.17	-9.02E+00
1223.78	118.32	-9.05E+00
1225.271	118.47	-9.08E+00
1226.76	118.62	-9.11E+00
1228.28	118.77	-9.14E+00
1229.76	118.92	-9.17E+00
1229.97	118.94	-9.17E+00