File: K06_20_corrected.txt
#FILE:                 ;000393_K06_20_1450_Air-static.sle
#FORMAT:               ;NETZSCH5
#IDENTITY:             ;000393
#DECIMAL:              ;POINT
#SEPARATOR:            ;SEMICOLON
#MTYPE:                ;DIL
#MSUBTYPE:             ;
#INSTRUMENT:           ;NETZSCH DIL 402 C
#PROJECT:              ;
#DATE/TIME:            ;22.06.2021 12:24:13
#CORR. FILE:           ;
#LABORATORY:           ;ЌЊ
#OPERATOR:             ;Ћа«®ў Ќ.
#REMARK:               ;
#SAMPLE:               ;K06_20
#SAMPLE LENGTH /mm:    ;2.170
#MATERIAL:             ;бв ­¤ ав­л© ®Ўа §Ґж
#MEASMODE:             ;Standard Expansion
#PURGE GAS 1:          ;
#FLOW RATE 1 /(ml/min):;0
#CORR. CODE:           ;000
#RANGE:                ;40.0/20.0(K/¬Ё­)/1450.0
#SEGMENT:              ;S1/1

##Temp./шC;Time/min;dL/Lo
800,138	37,84	8,76E-01
801,70898	37,92	8,73E-01
803,31598	38	8,72E-01
804,89502	38,08	8,70E-01
806,48999	38,16	8,67E-01
808,08301	38,24	8,65E-01
809,672	38,32	8,62E-01
811,24402	38,4	8,59E-01
812,84399	38,48	8,56E-01
814,43298	38,56	8,53E-01
816,04199	38,64	8,50E-01
817,61902	38,72	8,46E-01
819,21002	38,8	8,42E-01
820,79797	38,88	8,38E-01
822,375	38,96	8,34E-01
823,96997	39,04	8,30E-01
825,56	39,12	8,25E-01
827,14398	39,2	8,21E-01
828,73901	39,28	8,16E-01
830,32898	39,36	8,11E-01
831,914	39,44	8,06E-01
833,50702	39,52	8,01E-01
835,09497	39,6	7,96E-01
836,69202	39,68	7,90E-01
838,27301	39,76	7,84E-01
839,86298	39,84	7,78E-01
841,45697	39,92	7,71E-01
843,03497	40	7,65E-01
844,63898	40,08	7,59E-01
846,22699	40,16	7,51E-01
847,80701	40,24	7,45E-01
849,40698	40,32	7,38E-01
850,99298	40,4	7,30E-01
852,57397	40,48	7,23E-01
854,16998	40,56	7,15E-01
855,75897	40,64	7,07E-01
857,35498	40,72	6,99E-01
858,93799	40,8	6,90E-01
860,52002	40,88	6,82E-01
862,12799	40,96	6,73E-01
863,698	41,04	6,65E-01
865,29102	41,12	6,55E-01
866,87097	41,2	6,45E-01
868,479	41,28	6,36E-01
870,07001	41,36	6,27E-01
871,664	41,44	6,17E-01
873,24298	41,52	6,07E-01
874,83301	41,6	5,96E-01
876,43298	41,68	5,85E-01
878,01202	41,76	5,75E-01
879,60999	41,84	5,64E-01
881,20502	41,92	5,53E-01
882,776	42	5,42E-01
884,367	42,08	5,30E-01
885,96399	42,16	5,19E-01
887,54797	42,24	5,07E-01
889,133	42,32	4,95E-01
890,73199	42,4	4,84E-01
892,31299	42,48	4,71E-01
893,92102	42,56	4,59E-01
895,495	42,64	4,47E-01
897,08502	42,72	4,34E-01
898,68103	42,8	4,21E-01
900,27899	42,88	4,08E-01
901,84497	42,96	3,95E-01
903,45203	43,04	3,83E-01
905,04498	43,12	3,70E-01
906,62402	43,2	3,56E-01
908,22498	43,28	3,43E-01
909,82098	43,36	3,29E-01
911,39697	43,44	3,16E-01
912,98499	43,52	3,02E-01
914,578	43,6	2,87E-01
916,15802	43,68	2,74E-01
917,74799	43,76	2,60E-01
919,341	43,84	2,45E-01
920,93597	43,92	2,30E-01
922,53198	44	2,16E-01
924,12299	44,08	2,01E-01
925,70099	44,16	1,86E-01
927,29498	44,24	1,71E-01
928,88	44,32	1,55E-01
930,466	44,4	1,40E-01
932,06403	44,48	1,24E-01
933,65698	44,56	1,09E-01
935,23199	44,64	9,34E-02
936,828	44,72	7,63E-02
938,41901	44,8	6,04E-02
940,00702	44,88	4,39E-02
941,60797	44,96	2,71E-02
943,19501	45,04	1,04E-02
944,771	45,12	-6,76E-03
946,35498	45,2	-2,43E-02
947,93903	45,28	-4,25E-02
949,53998	45,36	-6,11E-02
951,12201	45,44	-7,96E-02
952,703	45,52	-9,98E-02
954,30798	45,6	-1,19E-01
955,89203	45,68	-1,39E-01
957,47498	45,76	-1,59E-01
959,06799	45,84	-1,80E-01
960,66998	45,92	-2,00E-01
962,24701	46	-2,21E-01
963,836	46,08	-2,42E-01
965,41901	46,16	-2,63E-01
967,01501	46,24	-2,84E-01
968,62097	46,32	-3,06E-01
970,216	46,4	-3,27E-01
971,78699	46,48	-3,49E-01
973,38	46,56	-3,71E-01
974,961	46,64	-3,93E-01
976,55298	46,72	-4,16E-01
978,15601	46,8	-4,39E-01
979,73602	46,88	-4,62E-01
981,33398	46,96	-4,85E-01
982,91901	47,04	-5,09E-01
984,51001	47,12	-5,33E-01
986,10699	47,2	-5,57E-01
987,69501	47,28	-5,81E-01
989,276	47,36	-6,06E-01
990,87097	47,44	-6,31E-01
992,47302	47,52	-6,56E-01
994,05402	47,6	-6,81E-01
995,65698	47,68	-7,06E-01
997,24402	47,76	-7,32E-01
998,83301	47,84	-7,56E-01
1000,42102	47,92	-7,79E-01
1002,021	48	-8,03E-01
1003,604	48,08	-8,27E-01
1005,19897	48,16	-8,53E-01
1006,77802	48,24	-8,78E-01
1008,388	48,32	-9,05E-01
1009,98401	48,4	-9,31E-01
1011,56097	48,48	-9,56E-01
1013,15997	48,56	-9,80E-01
1014,75598	48,64	-1,00E+00
1016,33801	48,72	-1,03E+00
1017,92499	48,8	-1,05E+00
1019,526	48,88	-1,08E+00
1021,11499	48,96	-1,11E+00
1022,69897	49,04	-1,13E+00
1024,29797	49,12	-1,16E+00
1025,88794	49,2	-1,19E+00
1027,48901	49,28	-1,22E+00
1029,06604	49,36	-1,25E+00
1030,66602	49,44	-1,28E+00
1032,25305	49,52	-1,31E+00
1033,83496	49,6	-1,34E+00
1035,43103	49,68	-1,37E+00
1037,03003	49,76	-1,40E+00
1038,62097	49,84	-1,43E+00
1040,21997	49,92	-1,46E+00
1041,79297	50	-1,49E+00
1043,38794	50,08	-1,53E+00
1044,98303	50,16	-1,56E+00
1046,58105	50,24	-1,59E+00
1048,16602	50,32	-1,63E+00
1049,75305	50,4	-1,66E+00
1051,33801	50,48	-1,70E+00
1052,93506	50,56	-1,73E+00
1054,53198	50,64	-1,77E+00
1056,12903	50,72	-1,80E+00
1057,72705	50,8	-1,84E+00
1059,30701	50,88	-1,87E+00
1060,896	50,96	-1,91E+00
1062,49402	51,04	-1,94E+00
1064,08496	51,12	-1,98E+00
1065,67603	51,2	-2,02E+00
1067,27295	51,28	-2,06E+00
1068,85303	51,36	-2,09E+00
1070,453	51,44	-2,13E+00
1072,03296	51,52	-2,17E+00
1073,63	51,6	-2,21E+00
1075,23706	51,68	-2,24E+00
1076,80701	51,76	-2,28E+00
1078,40405	51,84	-2,32E+00
1079,99902	51,92	-2,36E+00
1081,58801	52	-2,40E+00
1083,19299	52,08	-2,44E+00
1084,78101	52,16	-2,48E+00
1086,35999	52,24	-2,52E+00
1087,96899	52,32	-2,56E+00
1089,53894	52,4	-2,60E+00
1091,14197	52,48	-2,64E+00
1092,73804	52,56	-2,68E+00
1094,31799	52,64	-2,72E+00
1095,91296	52,72	-2,76E+00
1097,50195	52,8	-2,80E+00
1099,08899	52,88	-2,84E+00
1100,69299	52,96	-2,88E+00
1102,28198	53,04	-2,93E+00
1103,87305	53,12	-2,97E+00
1105,46497	53,2	-3,01E+00
1107,06104	53,28	-3,06E+00
1108,64905	53,36	-3,10E+00
1110,24304	53,44	-3,14E+00
1111,84497	53,52	-3,19E+00
1113,42798	53,6	-3,23E+00
1115,01294	53,68	-3,28E+00
1116,61401	53,76	-3,32E+00
1118,21399	53,84	-3,36E+00
1119,79895	53,92	-3,41E+00
1121,39502	54	-3,46E+00
1122,98206	54,08	-3,50E+00
1124,57996	54,16	-3,55E+00
1126,18103	54,24	-3,60E+00
1127,76599	54,32	-3,64E+00
1129,37195	54,4	-3,69E+00
1130,93896	54,48	-3,74E+00
1132,55505	54,56	-3,79E+00
1134,13794	54,64	-3,83E+00
1135,74097	54,72	-3,88E+00
1137,33105	54,8	-3,93E+00
1138,92004	54,88	-3,98E+00
1140,51501	54,96	-4,03E+00
1142,11804	55,04	-4,08E+00
1143,69702	55,12	-4,13E+00
1145,29297	55,2	-4,18E+00
1146,88599	55,28	-4,23E+00
1148,48499	55,36	-4,28E+00
1150,08704	55,44	-4,33E+00
1151,66797	55,52	-4,38E+00
1153,26904	55,6	-4,43E+00
1154,86401	55,68	-4,48E+00
1156,45703	55,76	-4,53E+00
1158,05005	55,84	-4,58E+00
1159,64099	55,92	-4,64E+00
1161,23596	56	-4,69E+00
1162,83801	56,08	-4,74E+00
1164,41895	56,16	-4,79E+00
1166,01196	56,24	-4,85E+00
1167,61499	56,32	-4,90E+00
1169,20203	56,4	-4,96E+00
1170,80505	56,48	-5,01E+00
1172,39697	56,56	-5,06E+00
1173,98303	56,64	-5,12E+00
1175,59302	56,72	-5,17E+00
1177,17004	56,8	-5,22E+00
1178,76904	56,88	-5,28E+00
1180,36804	56,96	-5,33E+00
1181,95203	57,04	-5,38E+00
1183,55298	57,12	-5,44E+00
1185,14001	57,2	-5,49E+00
1186,745	57,28	-5,54E+00
1188,33704	57,36	-5,60E+00
1189,93701	57,44	-5,65E+00
1191,53699	57,52	-5,71E+00
1193,12195	57,6	-5,76E+00
1194,71301	57,68	-5,81E+00
1196,31897	57,76	-5,87E+00
1197,89905	57,84	-5,92E+00
1199,50305	57,92	-5,97E+00
1201,08704	58	-6,03E+00
1202,69495	58,08	-6,08E+00
1204,28503	58,16	-6,13E+00
1205,875	58,24	-6,19E+00
1207,474	58,32	-6,23E+00
1209,05505	58,4	-6,29E+00
1210,64294	58,48	-6,34E+00
1212,26599	58,56	-6,39E+00
1213,84497	58,64	-6,44E+00
1215,44397	58,72	-6,48E+00
1217,05103	58,8	-6,53E+00
1218,63501	58,88	-6,58E+00
1220,23804	58,96	-6,63E+00
1221,82495	59,04	-6,67E+00
1223,43103	59,12	-6,72E+00
1225,01196	59,2	-6,76E+00
1226,61096	59,28	-6,81E+00
1228,20996	59,36	-6,85E+00
1229,802	59,44	-6,89E+00
1229,99805	59,45	-6,90E+00