File: K06_2_corrected.txt
#FILE:                 ;000398_K06_2_1350_Air-static.sle
#FORMAT:               ;NETZSCH5
#IDENTITY:             ;000398
#DECIMAL:              ;POINT
#SEPARATOR:            ;SEMICOLON
#MTYPE:                ;DIL
#MSUBTYPE:             ;
#INSTRUMENT:           ;NETZSCH DIL 402 C
#PROJECT:              ;
#DATE/TIME:            ;24.06.2021 19:46:38
#CORR. FILE:           ;
#LABORATORY:           ;ЌЊ
#OPERATOR:             ;Ћа«®ў Ќ.
#REMARK:               ;
#SAMPLE:               ;K06_2
#SAMPLE LENGTH /mm:    ;2.780
#MATERIAL:             ;бв ­¤ ав­л© ®Ўа §Ґж
#MEASMODE:             ;Standard Expansion
#PURGE GAS 1:          ;
#FLOW RATE 1 /(ml/min):;0
#CORR. CODE:           ;000
#RANGE:                ;40.0/2.0(K/¬Ё­)/1350.0
#SEGMENT:              ;S1/1

##Temp./шC;Time/min;dL/Lo
800.021	379.709	2.15E-01
801.455	380.432	2.05E-01
802.902	381.154	1.95E-01
804.337	381.877	1.85E-01
805.79	382.599	1.74E-01
807.242	383.322	1.63E-01
808.679	384.044	1.52E-01
810.117	384.767	1.41E-01
811.569	385.489	1.29E-01
813.011	386.212	1.17E-01
814.452	386.934	1.05E-01
815.901	387.657	9.33E-02
817.358	388.379	8.10E-02
818.79	389.102	6.85E-02
820.237	389.824	5.52E-02
821.679	390.547	4.32E-02
823.138	391.269	2.91E-02
824.574	391.992	1.54E-02
826.017	392.714	1.49E-03
827.464	393.437	-1.23E-02
828.912	394.159	-2.66E-02
830.357	394.882	-4.07E-02
831.796	395.604	-5.67E-02
833.238	396.327	-7.14E-02
834.687	397.049	-8.62E-02
836.13	397.772	-1.02E-01
837.573	398.494	-1.17E-01
839.023	399.217	-1.34E-01
840.476	399.939	-1.50E-01
841.907	400.662	-1.67E-01
843.357	401.384	-1.84E-01
844.8	402.107	-2.00E-01
846.242	402.829	-2.18E-01
847.688	403.552	-2.36E-01
849.134	404.274	-2.54E-01
850.58	404.997	-2.72E-01
852.027	405.719	-2.92E-01
853.464	406.442	-3.10E-01
854.905	407.164	-3.30E-01
856.357	407.887	-3.49E-01
857.807	408.609	-3.70E-01
859.236	409.332	-3.90E-01
860.685	410.054	-4.11E-01
862.137	410.777	-4.32E-01
863.579	411.499	-4.54E-01
865.011	412.222	-4.75E-01
866.461	412.944	-4.97E-01
867.904	413.667	-5.19E-01
869.355	414.389	-5.42E-01
870.796	415.112	-5.65E-01
872.238	415.834	-5.89E-01
873.684	416.557	-6.12E-01
875.133	417.279	-6.37E-01
876.569	418.002	-6.61E-01
878.015	418.724	-6.86E-01
879.463	419.447	-7.11E-01
880.904	420.169	-7.36E-01
882.345	420.892	-7.62E-01
883.786	421.614	-7.88E-01
885.241	422.337	-8.15E-01
886.69	423.059	-8.42E-01
888.122	423.782	-8.69E-01
889.567	424.504	-8.96E-01
891.025	425.227	-9.25E-01
892.472	425.949	-9.53E-01
893.914	426.672	-9.82E-01
895.344	427.394	-1.01E+00
896.799	428.117	-1.04E+00
898.251	428.839	-1.07E+00
899.685	429.562	-1.10E+00
901.128	430.284	-1.13E+00
902.586	431.007	-1.16E+00
904.029	431.729	-1.19E+00
905.463	432.452	-1.22E+00
906.902	433.174	-1.25E+00
908.351	433.897	-1.29E+00
909.81	434.619	-1.32E+00
911.246	435.342	-1.35E+00
912.688	436.064	-1.38E+00
914.135	436.787	-1.42E+00
915.594	437.509	-1.45E+00
917.023	438.232	-1.48E+00
918.469	438.954	-1.52E+00
919.912	439.677	-1.55E+00
921.352	440.399	-1.58E+00
922.814	441.122	-1.62E+00
924.244	441.844	-1.65E+00
925.69	442.567	-1.69E+00
927.15	443.289	-1.72E+00
928.585	444.012	-1.76E+00
930.031	444.734	-1.80E+00
931.461	445.457	-1.83E+00
932.907	446.179	-1.87E+00
934.357	446.902	-1.90E+00
935.809	447.624	-1.94E+00
937.254	448.347	-1.98E+00
938.685	449.069	-2.01E+00
940.147	449.792	-2.05E+00
941.584	450.514	-2.09E+00
943.023	451.237	-2.12E+00
944.461	451.959	-2.16E+00
945.911	452.682	-2.20E+00
947.366	453.404	-2.24E+00
948.8	454.127	-2.27E+00
950.235	454.849	-2.31E+00
951.696	455.572	-2.35E+00
953.145	456.294	-2.39E+00
954.578	457.017	-2.43E+00
956.021	457.739	-2.46E+00
957.463	458.462	-2.50E+00
958.924	459.184	-2.54E+00
960.365	459.907	-2.58E+00
961.802	460.629	-2.62E+00
963.237	461.352	-2.66E+00
964.682	462.074	-2.70E+00
966.144	462.797	-2.74E+00
967.581	463.519	-2.78E+00
969.021	464.242	-2.82E+00
970.47	464.964	-2.86E+00
971.916	465.687	-2.90E+00
973.359	466.409	-2.94E+00
974.803	467.132	-2.98E+00
976.247	467.854	-3.02E+00
977.7	468.577	-3.06E+00
979.148	469.299	-3.11E+00
980.586	470.022	-3.15E+00
982.021	470.744	-3.19E+00
983.478	471.467	-3.23E+00
984.937	472.189	-3.28E+00
986.377	472.912	-3.32E+00
987.81	473.634	-3.36E+00
989.266	474.357	-3.40E+00
990.707	475.079	-3.45E+00
992.14	475.802	-3.49E+00
993.582	476.524	-3.54E+00
995.029	477.247	-3.58E+00
996.482	477.969	-3.63E+00
997.934	478.692	-3.67E+00
999.369	479.414	-3.72E+00
1000.81	480.137	-3.76E+00
1002.25	480.859	-3.81E+00
1003.7	481.582	-3.85E+00
1005.15	482.304	-3.90E+00
1006.59	483.027	-3.95E+00
1008.03	483.749	-3.99E+00
1009.48	484.472	-4.04E+00
1010.927	485.194	-4.09E+00
1012.38	485.917	-4.13E+00
1013.82	486.639	-4.18E+00
1015.25	487.362	-4.23E+00
1016.72	488.084	-4.28E+00
1018.164	488.807	-4.32E+00
1019.6	489.529	-4.37E+00
1021.04	490.252	-4.42E+00
1022.48	490.974	-4.47E+00
1023.94	491.697	-4.52E+00
1025.39	492.419	-4.56E+00
1026.82	493.142	-4.61E+00
1028.27	493.864	-4.66E+00
1029.703	494.587	-4.71E+00
1031.16	495.309	-4.76E+00
1032.6	496.032	-4.81E+00
1034.052	496.754	-4.86E+00
1035.49	497.477	-4.91E+00
1036.93	498.199	-4.96E+00
1038.39	498.922	-5.01E+00
1039.84	499.644	-5.06E+00
1041.26	500.367	-5.11E+00
1042.71	501.089	-5.16E+00
1044.15	501.812	-5.20E+00
1045.61	502.534	-5.25E+00
1047.05	503.257	-5.30E+00
1048.48	503.979	-5.35E+00
1049.93	504.702	-5.40E+00
1051.37	505.424	-5.45E+00
1052.84	506.147	-5.50E+00
1054.27	506.869	-5.55E+00
1055.71	507.592	-5.60E+00
1057.16	508.314	-5.65E+00
1058.6	509.037	-5.70E+00
1060.05	509.759	-5.75E+00
1061.49	510.482	-5.80E+00
1062.927	511.204	-5.85E+00
1064.375	511.927	-5.90E+00
1065.83	512.649	-5.95E+00
1067.28	513.372	-6.00E+00
1068.72	514.094	-6.05E+00
1070.16	514.817	-6.10E+00
1071.6	515.539	-6.15E+00
1073.03	516.262	-6.20E+00
1074.5	516.984	-6.25E+00
1075.94	517.707	-6.30E+00
1077.38	518.429	-6.35E+00
1078.83	519.152	-6.39E+00
1080.26	519.874	-6.44E+00
1081.72	520.597	-6.49E+00
1083.16	521.319	-6.54E+00
1084.61	522.042	-6.59E+00
1086.05	522.764	-6.63E+00
1087.49	523.487	-6.68E+00
1088.95	524.209	-6.73E+00
1090.39	524.932	-6.78E+00
1091.83	525.654	-6.83E+00
1093.26	526.377	-6.87E+00
1094.71	527.099	-6.92E+00
1096.17	527.822	-6.96E+00
1097.61	528.544	-7.01E+00
1099.05	529.267	-7.06E+00
1100.49	529.9892	-7.10E+00
1101.94	530.712	-7.15E+00
1103.41	531.434	-7.19E+00
1104.84	532.157	-7.23E+00
1106.28	532.879	-7.27E+00
1107.71	533.602	-7.32E+00
1109.17	534.324	-7.36E+00
1110.62	535.047	-7.41E+00
1112.047	535.769	-7.45E+00
1113.5	536.492	-7.49E+00
1114.94	537.214	-7.53E+00
1116.39	537.937	-7.57E+00
1117.84	538.659	-7.62E+00
1119.28	539.382	-7.66E+00
1120.72	540.104	-7.70E+00
1122.17	540.827	-7.74E+00
1123.61	541.549	-7.78E+00
1125.052	542.272	-7.81E+00
1126.51	542.994	-7.85E+00
1127.94	543.717	-7.89E+00
1129.4	544.439	-7.93E+00
1130.84	545.162	-7.96E+00
1132.276	545.884	-8.00E+00
1133.729	546.607	-8.04E+00
1135.18	547.329	-8.08E+00
1136.61	548.0517	-8.11E+00
1138.06	548.774	-8.14E+00
1139.5	549.497	-8.18E+00
1140.96	550.219	-8.21E+00
1142.4	550.942	-8.25E+00
1143.83	551.664	-8.28E+00
1145.29	552.387	-8.32E+00
1146.72	553.109	-8.35E+00
1148.18	553.832	-8.38E+00
1149.625	554.554	-8.41E+00
1151.07	555.277	-8.44E+00
1152.505	555.999	-8.47E+00
1153.94	556.722	-8.50E+00
1155.41	557.444	-8.53E+00
1156.83	558.167	-8.55E+00
1158.3	558.889	-8.58E+00
1159.74	559.612	-8.61E+00
1161.18	560.334	-8.64E+00
1162.62	561.057	-8.66E+00
1164.07	561.779	-8.68E+00
1165.52	562.502	-8.70E+00
1166.96	563.224	-8.73E+00
1168.4	563.947	-8.75E+00
1169.86	564.669	-8.77E+00
1171.3	565.392	-8.80E+00
1172.73	566.1142	-8.82E+00
1174.19	566.837	-8.84E+00
1175.63	567.559	-8.86E+00
1177.07	568.282	-8.88E+00
1178.51	569.004	-8.90E+00
1179.96	569.727	-8.92E+00
1181.42	570.449	-8.94E+00
1182.84	571.172	-8.96E+00
1184.29	571.894	-8.98E+00
1185.74	572.617	-8.99E+00
1187.18	573.339	-9.01E+00
1188.62	574.062	-9.03E+00
1190.07	574.784	-9.04E+00
1191.52	575.507	-9.06E+00
1192.97	576.229	-9.08E+00
1194.42	576.952	-9.09E+00
1195.86	577.674	-9.11E+00
1197.3	578.397	-9.12E+00
1198.75	579.119	-9.14E+00
1200.19	579.842	-9.15E+00
1201.63	580.564	-9.16E+00
1203.073	581.287	-9.17E+00
1204.521	582.009	-9.19E+00
1205.97	582.732	-9.20E+00
1207.43	583.454	-9.22E+00
1208.86	584.1767	-9.22E+00
1210.3	584.899	-9.24E+00
1211.75	585.622	-9.25E+00
1213.19	586.344	-9.26E+00
1214.65	587.067	-9.27E+00
1216.09	587.789	-9.28E+00
1217.53	588.512	-9.30E+00
1218.96	589.234	-9.31E+00
1220.427	589.957	-9.31E+00
1221.86	590.679	-9.33E+00
1223.32	591.402	-9.34E+00
1224.76	592.124	-9.34E+00
1226.19	592.847	-9.35E+00
1227.64	593.569	-9.36E+00
1229.09	594.292	-9.37E+00
1229.97	594.731	-9.38E+00